%OpenBCI Raw EXG Data
%Number of channels = 8
%Sample Rate = 250 Hz
%Board = OpenBCI_GUI$BoardCytonSerial
Sample Index, EXG Channel 0, EXG Channel 1, EXG Channel 2, EXG Channel 3, EXG Channel 4, EXG Channel 5, EXG Channel 6, EXG Channel 7, Accel Channel 0, Accel Channel 1, Accel Channel 2, Not Used, Digital Channel 0 (D11), Digital Channel 1 (D12), Digital Channel 2 (D13), Digital Channel 3 (D17), Not Used, Digital Channel 4 (D18), Analog Channel 0, Analog Channel 1, Analog Channel 2, Timestamp, Marker Channel, Timestamp (Formatted)
206.0, 50308.83703337157, -75302.78120074049, 50420.59575564811, -132315.15226544766, -127321.03494656504, -80421.82241938383, -84067.23547783321, -74366.01959061857, 0.0, 0.0, 0.0, 192.0, 0.0, 0.0, 0.0, 0.0, 0.0, 0.0, 0.0, 0.0, 0.0, 1.769680279896653E9, 0.0, 2026-01-29 15:21:19.896
207.0, 50496.81520424071, -87009.10502780737, 40281.19627013162, -145403.6632661418, -127329.81918213597, -80431.27720728841, -84070.02944589013, -74372.03220987704, 0.0, 0.0, 0.0, 192.0, 0.0, 0.0, 0.0, 0.0, 0.0, 0.0, 0.0, 0.0, 0.0, 1.769680279896804E9, 0.0, 2026-01-29 15:21:19.896
208.0, 50683.228752997966, -98501.16503252566, -5506.173432609253, -155884.50799995757, -127338.1563828178, -80441.22373357102, -84073.2480970917, -74378.6036227469, 0.0, 0.0, 0.0, 192.0, 0.0, 0.0, 0.0, 0.0, 0.0, 0.0, 0.0, 0.0, 0.0, 1.769680279896893E9, 0.0, 2026-01-29 15:21:19.896
209.0, 50629.763380260876, -94875.93559931942, 23271.116408242753, -150349.5902239788, -127332.0543565815, -80437.62510271372, -84070.27531507914, -74377.7989599465, 0.0, 0.0, 0.0, 192.0, 0.0, 0.0, 0.0, 0.0, 0.0, 0.0, 0.0, 0.0, 0.0, 1.769680279896979E9, 0.0, 2026-01-29 15:21:19.896
210.0, 50396.43351989192, -80113.36834590058, 49867.524190845994, -135165.22320094387, -127320.61026342039, -80428.2373700425, -84066.81079468856, -74375.49673026762, 0.0, 0.0, 0.0, 192.0, 0.0, 0.0, 0.0, 0.0, 0.0, 0.0, 0.0, 0.0, 0.0, 1.769680279897077E9, 0.0, 2026-01-29 15:21:19.897
211.0, 50326.04787660216, -75365.76841661554, 50437.560729689685, -132412.29294685042, -127316.92222558525, -80425.42105024113, -84065.06735862105, -74375.74259945663, 0.0, 0.0, 0.0, 192.0, 0.0, 0.0, 0.0, 0.0, 0.0, 0.0, 0.0, 0.0, 0.0, 1.769680279897165E9, 0.0, 2026-01-29 15:21:19.897
212.0, 50516.86471901712, -87191.65172477385, 40013.13179887913, -145572.86597166848, -127326.9581588457, -80436.12753583521, -84069.13537611191, -74383.07397163796, -0.498, -0.352, 0.786, 192.0, 240.0, 112.0, 245.0, 0.0, 24.0, 144.0, 0.0, 0.0, 0.0, 1.769680279897249E9, 0.0, 2026-01-29 15:21:19.897
213.0, 50703.61354394121, -98570.90247522623, -5264.618130280749, -155893.31458727297, -127337.59758920642, -80448.59980924128, -84074.72331222575, -74392.10407639791, -0.498, -0.352, 0.786, 192.0, 0.0, 0.0, 0.0, 0.0, 0.0, 0.0, 0.0, 0.0, 0.0, 1.769680279897342E9, 0.0, 2026-01-29 15:21:19.897
214.0, 50649.00823223689, -94768.08843232256, 24228.955713386025, -150191.63044591315, -127333.35075775991, -80446.81166968486, -84073.53866976961, -74393.13225664286, -0.498, -0.352, 0.786, 192.0, 0.0, 0.0, 0.0, 0.0, 0.0, 0.0, 0.0, 0.0, 0.0, 1.769680279897448E9, 0.0, 2026-01-29 15:21:19.897
215.0, 50414.73959860082, -79971.50182384274, 49951.52204650904, -135029.83868477808, -127321.16905703177, -80436.6416259577, -84069.51535576765, -74390.1147711414, -0.498, -0.352, 0.786, 192.0, 0.0, 0.0, 0.0, 0.0, 0.0, 0.0, 0.0, 0.0, 0.0, 1.769680279897559E9, 0.0, 2026-01-29 15:21:19.897
216.0, 50349.29369083568, -75419.054975397, 50460.292453800736, -132502.8845671278, -127319.38091747534, -80435.61344571275, -84069.64946623439, -74392.12642814236, -0.498, -0.352, 0.786, 192.0, 0.0, 0.0, 0.0, 0.0, 0.0, 0.0, 0.0, 0.0, 0.0, 1.769680279897646E9, 0.0, 2026-01-29 15:21:19.897
217.0, 50542.83744607418, -87358.90982853292, 39770.74948200578, -145735.6537265365, -127330.53443795854, -80447.48222201852, -84074.81271920356, -74400.48598056866, -0.498, -0.352, 0.786, 192.0, 0.0, 0.0, 0.0, 0.0, 0.0, 0.0, 0.0, 0.0, 0.0, 1.769680279897744E9, 0.0, 2026-01-29 15:21:19.897
218.0, 50727.30639306383, -98642.40570573875, -5226.150778073165, -155925.4563957997, -127340.36920551887, -80459.0380739019, -84079.64069600591, -74408.66671903929, -0.498, -0.352, 0.786, 192.0, 0.0, 0.0, 0.0, 0.0, 0.0, 0.0, 0.0, 0.0, 0.0, 1.769680279897831E9, 0.0, 2026-01-29 15:21:19.897
219.0, 50669.12480224667, -94656.77674493514, 24988.311527766175, -150049.00396454384, -127335.22830429416, -80456.35586456727, -84077.80785296057, -74409.04669869503, -0.498, -0.352, 0.786, 192.0, 0.0, 0.0, 0.0, 0.0, 0.0, 0.0, 0.0, 0.0, 0.0, 1.76968027989796E9, 0.0, 2026-01-29 15:21:19.897
220.0, 50433.76093313229, -79838.10661293348, 50025.64043112283, -134921.38802068093, -127322.21958902116, -80445.29175106189, -84072.77871045814, -74405.09043992644, -0.498, -0.352, 0.786, 192.0, 0.0, 0.0, 0.0, 0.0, 0.0, 0.0, 0.0, 0.0, 0.0, 1.769680279898119E9, 0.0, 2026-01-29 15:21:19.898
221.0, 50371.01958644624, -75491.00524079862, 50481.43720405546, -132610.30705098, -127320.051469809, -80444.08475686131, -84072.3987308024, -74406.63271029387, -0.498, -0.352, 0.786, 192.0, 0.0, 0.0, 0.0, 0.0, 0.0, 0.0, 0.0, 0.0, 0.0, 1.769680279898266E9, 0.0, 2026-01-29 15:21:19.898
222.0, 50563.64692016208, -87535.93564461895, 39593.388389752916, -145906.39870243057, -127328.8580571244, -80453.60659999927, -84075.05858839257, -74412.62297780789, -0.498, -0.352, 0.79, 192.0, 240.0, 112.0, 245.0, 0.0, 24.0, 176.0, 0.0, 0.0, 0.0, 1.769680279898383E9, 0.0, 2026-01-29 15:21:19.898
223.0, 50743.46670430502, -98683.97995042562, -4698.940181605838, -155907.9996833801, -127336.30118802801, -80462.7931669704, -84077.62903900493, -74418.47913485517, -0.498, -0.352, 0.79, 192.0, 0.0, 0.0, 0.0, 0.0, 0.0, 0.0, 0.0, 0.0, 0.0, 1.769680279898494E9, 0.0, 2026-01-29 15:21:19.898
224.0, 50687.006197810915, -94525.84022591595, 25970.447179132367, -149870.86056123502, -127335.8541531389, -80464.6930652491, -84080.37830357293, -74423.39651863535, -0.498, -0.352, 0.79, 192.0, 0.0, 0.0, 0.0, 0.0, 0.0, 0.0, 0.0, 0.0, 0.0, 1.769680279898583E9, 0.0, 2026-01-29 15:21:19.898
0.0, 0.0, 0.0, 0.0, 0.0, 0.0, 0.0, 0.0, 0.0, -0.498, -0.352, 0.79, 192.0, 0.0, 0.0, 0.0, 0.0, 0.0, 0.0, 0.0, 0.0, 0.0, 1.769680279983419E9, 0.0, 2026-01-29 15:21:19.983
1.0, 71601.1982084749, -116891.15219010737, -50238.540797059635, -182547.97101592674, -128227.35348073882, -83732.80867729291, -85622.80513320031, -78885.34115378156, -0.646, -0.322, 0.67, 192.0, 235.0, 208.0, 245.0, 240.0, 20.0, 240.0, 0.0, 0.0, 0.0, 1.769680280051254E9, 0.0, 2026-01-29 15:21:20.051
2.0, 71455.08485497056, -103748.70643004257, 49189.57342977208, -168443.99791288353, -128217.69752713414, -83726.93016850116, -85620.99464189944, -78885.5199677372, -0.646, -0.322, 0.67, 192.0, 0.0, 0.0, 0.0, 0.0, 0.0, 0.0, 0.0, 0.0, 0.0, 1.769680280051387E9, 0.0, 2026-01-29 15:21:20.051
3.0, 71403.51938051217, -100643.3562211223, 67430.69796928143, -166099.03169858834, -128215.4623526886, -83725.56671208939, -85620.68171747705, -78887.4198660159, -0.646, -0.322, 0.67, 192.0, 0.0, 0.0, 0.0, 0.0, 0.0, 0.0, 0.0, 0.0, 0.0, 1.769680280051488E9, 0.0, 2026-01-29 15:21:20.051
4.0, 71531.75133845226, -111671.19284524833, -4791.319941439622, -178318.4398196268, -128225.09595454884, -83734.2615406825, -85624.92854892356, -78893.9242236524, -0.646, -0.322, 0.67, 192.0, 0.0, 0.0, 0.0, 0.0, 0.0, 0.0, 0.0, 0.0, 0.0, 1.769680280051627E9, 0.0, 2026-01-29 15:21:20.051
5.0, 71670.89094768655, -121067.35212413695, -79393.06102908385, -187500.02235174447, -128230.68389066267, -83740.72119483008, -85626.47081929097, -78897.76872369871, -0.646, -0.322, 0.67, 192.0, 0.0, 0.0, 0.0, 0.0, 0.0, 0.0, 0.0, 0.0, 0.0, 1.769680280051762E9, 0.0, 2026-01-29 15:21:20.051
6.0, 71656.31761030169, -116759.4110082878, -48093.08625377253, -182280.95707666365, -128229.43219297317, -83742.6657965977, -85628.48247629196, -78901.92614816739, -0.646, -0.322, 0.67, 192.0, 0.0, 0.0, 0.0, 0.0, 0.0, 0.0, 0.0, 0.0, 0.0, 1.769680280051844E9, 0.0, 2026-01-29 15:21:20.051
7.0, 71513.35585276554, -103696.91743813962, 50712.375427767685, -168239.8147272843, -128222.65961440321, -83739.53655237396, -85629.53300828136, -78905.05539239114, -0.646, -0.322, 0.67, 192.0, 0.0, 0.0, 0.0, 0.0, 0.0, 0.0, 0.0, 0.0, 0.0, 1.769680280051934E9, 0.0, 2026-01-29 15:21:20.051
8.0, 71464.00320100824, -100811.93307780422, 67507.16328706304, -166106.3630707697, -128219.73153587956, -83737.59195060635, -85628.48247629196, -78906.1729796139, -0.718, -0.302, 0.618, 192.0, 233.0, 144.0, 246.0, 144.0, 19.0, 80.0, 0.0, 0.0, 0.0, 1.769680280052014E9, 0.0, 2026-01-29 15:21:20.052
9.0, 71594.26916769375, -111881.8580367396, -4730.813769199106, -178369.13357605145, -128229.63335867327, -83746.75616583302, -85632.88576994966, -78912.90085469495, -0.718, -0.302, 0.618, 192.0, 0.0, 0.0, 0.0, 0.0, 0.0, 0.0, 0.0, 0.0, 0.0, 1.769680280052104E9, 0.0, 2026-01-29 15:21:20.052
10.0, 71734.2357914729, -121091.42495291532, -79177.27728811232, -187500.02235174447, -128237.36706225481, -83755.38393919278, -85636.48440080696, -78918.91347395343, -0.718, -0.302, 0.618, 192.0, 0.0, 0.0, 0.0, 0.0, 0.0, 0.0, 0.0, 0.0, 0.0, 1.769680280052185E9, 0.0, 2026-01-29 15:21:20.052
11.0, 71717.18141045349, -116628.27332356852, -46112.98991596579, -182047.51545757242, -128235.24364653155, -83756.65798862673, -85637.84785721873, -78922.48975306627, -0.718, -0.302, 0.618, 192.0, 0.0, 0.0, 0.0, 0.0, 0.0, 0.0, 0.0, 0.0, 0.0, 1.769680280052279E9, 0.0, 2026-01-29 15:21:20.052
12.0, 71572.47621684984, -103641.59687061273, 52037.520949545025, -168036.34679750763, -128226.52646619397, -83751.74060484655, -85636.88673220716, -78923.5849885446, -0.718, -0.302, 0.618, 192.0, 0.0, 0.0, 0.0, 0.0, 0.0, 0.0, 0.0, 0.0, 0.0, 1.769680280052376E9, 0.0, 2026-01-29 15:21:20.052
13.0, 71526.65514071645, -101005.56624002055, 67559.15344466608, -166118.07538486426, -128225.27476850449, -83751.53943914645, -85637.5125810519, -78926.22249439031, -0.718, -0.302, 0.618, 192.0, 0.0, 0.0, 0.0, 0.0, 0.0, 0.0, 0.0, 0.0, 0.0, 1.769680280052477E9, 0.0, 2026-01-29 15:21:20.052
14.0, 71656.60818297962, -112106.22484758197, -4724.97996389627, -178434.110097183, -128234.72955640907, -83760.27897122849, -85641.55824679832, -78932.45863109334, -0.718, -0.302, 0.618, 192.0, 0.0, 0.0, 0.0, 0.0, 0.0, 0.0, 0.0, 0.0, 0.0, 1.769680280052777E9, 0.0, 2026-01-29 15:21:20.052
15.0, 71793.0432311348, -121135.14496506989, -78964.15340473097, -187500.02235174447, -128240.96569311211, -83767.40917770972, -85643.77106949939, -78937.13014568451, -0.718, -0.302, 0.618, 192.0, 0.0, 0.0, 0.0, 0.0, 0.0, 0.0, 0.0, 0.0, 0.0, 1.769680280052885E9, 0.0, 2026-01-29 15:21:20.052
16.0, 71772.25610879136, -116522.79544148392, -44068.81112680568, -181790.91743122548, -128237.45646923262, -83767.16330852071, -85643.6593107771, -78939.34296838558, -0.718, -0.302, 0.618, 192.0, 0.0, 0.0, 0.0, 0.0, 0.0, 0.0, 0.0, 0.0, 0.0, 1.769680280111575E9, 0.0, 2026-01-29 15:21:20.111
17.0, 71627.37210123207, -103608.2033643965, 53335.41969483134, -167832.23066714176, -128228.73928889506, -83762.08946252936, -85642.72053750999, -78940.4829073528, -0.718, -0.302, 0.618, 192.0, 0.0, 0.0, 0.0, 0.0, 0.0, 0.0, 0.0, 0.0, 0.0, 1.769680280111826E9, 0.0, 2026-01-29 15:21:20.111
18.0, 71583.22740593283, -101187.84471605357, 67529.24681058488, -166128.89362918065, -128226.90644584972, -83761.12833751779, -85642.78759274335, -78942.65102656497, -0.746, -0.296, 0.584, 192.0, 232.0, 176.0, 246.0, 192.0, 18.0, 64.0, 0.0, 0.0, 0.0, 1.769680280112E9, 0.0, 2026-01-29 15:21:20.112
19.0, 71715.19210519697, -112331.41867296919, -5143.046992188334, -178518.30911854617, -128237.79174539946, -83771.03016031148, -85647.99554920144, -78950.1388609575, -0.746, -0.296, 0.584, 192.0, 0.0, 0.0, 0.0, 0.0, 0.0, 0.0, 0.0, 0.0, 0.0, 1.769680280112175E9, 0.0, 2026-01-29 15:21:20.112
20.0, 71852.94590627502, -121181.6589452814, -78869.80669138512, -187471.47917407504, -128247.15712632623, -83781.40136973874, -85653.35996787071, -78957.85021279457, -0.746, -0.296, 0.584, 192.0, 0.0, 0.0, 0.0, 0.0, 0.0, 0.0, 0.0, 0.0, 0.0, 1.769680280112288E9, 0.0, 2026-01-29 15:21:20.112
21.0, 71832.22583916495, -116422.01142573493, -42209.48126429096, -181577.88295482195, -128246.017187359, -83783.63654418428, -85655.72925278297, -78962.32056168563, -0.746, -0.296, 0.584, 192.0, 0.0, 0.0, 0.0, 0.0, 0.0, 0.0, 0.0, 0.0, 0.0, 1.769680280112373E9, 0.0, 2026-01-29 15:21:20.112
22.0, 71687.31947986121, -103578.56495124877, 54474.97868239626, -167656.65771444532, -128237.41176574372, -83778.71916040411, -85654.92458998259, -78963.68401809741, -0.746, -0.296, 0.584, 192.0, 0.0, 0.0, 0.0, 0.0, 0.0, 0.0, 0.0, 0.0, 0.0, 1.769680280112483E9, 0.0, 2026-01-29 15:21:20.112
23.0, 71645.52171772977, -101384.45066028245, 67484.8338943522, -166169.5291006004, -128235.71303316511, -83777.73568364808, -85654.81283126031, -78965.69567509838, -0.746, -0.296, 0.584, 192.0, 0.0, 0.0, 0.0, 0.0, 0.0, 0.0, 0.0, 0.0, 0.0, 1.769680280112569E9, 0.0, 2026-01-29 15:21:20.112
24.0, 71777.95580362747, -112564.30149844903, -5664.222617652728, -178620.65775640702, -128245.99483561455, -83787.10106457485, -85659.46199410701, -78972.60236413508, -0.746, -0.296, 0.584, 192.0, 0.0, 0.0, 0.0, 0.0, 0.0, 0.0, 0.0, 0.0, 0.0, 1.769680280112662E9, 0.0, 2026-01-29 15:21:20.112
25.0, 71911.55218023685, -121228.64231212644, -78819.64937682741, -187427.46858924255, -128252.16391708421, -83794.14186407828, -85661.78657553036, -78977.11741651504, -0.746, -0.296, 0.584, 192.0, 0.0, 0.0, 0.0, 0.0, 0.0, 0.0, 0.0, 0.0, 0.0, 1.769680280112749E9, 0.0, 2026-01-29 15:21:20.112
26.0, 71888.17225553658, -116320.1545262521, -40582.0283987556, -181395.5150718111, -128249.19113507165, -83794.49949198955, -85662.5688865863, -78980.0901985276, -0.746, -0.296, 0.584, 192.0, 0.0, 0.0, 0.0, 0.0, 0.0, 0.0, 0.0, 0.0, 0.0, 1.769680280112848E9, 0.0, 2026-01-29 15:21:20.112
27.0, 71741.52246016532, -103535.96252631696, 55414.06487394153, -167501.26838699204, -128237.81409714391, -83786.8775471303, -85658.85849700672, -78978.5926316491, -0.746, -0.296, 0.584, 192.0, 0.0, 0.0, 0.0, 0.0, 0.0, 0.0, 0.0, 0.0, 0.0, 1.769680280112945E9, 0.0, 2026-01-29 15:21:20.112
28.0, 71701.15520967904, -101553.85453150923, 67458.59294636166, -166219.90993260263, -128234.99777734253, -83784.7764831515, -85657.49504059495, -78979.21848049384, -0.764, -0.29, 0.5680000000000001, 192.0, 232.0, 32.0, 246.0, 240.0, 17.0, 192.0, 0.0, 0.0, 0.0, 1.769680280113041E9, 0.0, 2026-01-29 15:21:20.113
29.0, 71832.15878393159, -112749.73157045027, -6004.058540351217, -178708.7236295609, -128242.88794313527, -83791.68317218819, -85659.7749185294, -78983.75588461828, -0.764, -0.29, 0.5680000000000001, 192.0, 0.0, 0.0, 0.0, 0.0, 0.0, 0.0, 0.0, 0.0, 0.0, 1.769680280113136E9, 0.0, 2026-01-29 15:21:20.113
30.0, 71965.59869832978, -121235.43724244085, -78677.7157995362, -187365.8224780348, -128250.97927462809, -83800.69092520367, -85664.11115695372, -78990.41670446596, -0.764, -0.29, 0.5680000000000001, 192.0, 0.0, 0.0, 0.0, 0.0, 0.0, 0.0, 0.0, 0.0, 0.0, 1.769680280113233E9, 0.0, 2026-01-29 15:21:20.113
31.0, 71939.87184046171, -116175.33757392617, -38618.65116580143, -181174.29985693694, -128247.78297517098, -83800.9814978816, -85664.60289533173, -78993.32243124515, -0.764, -0.29, 0.5680000000000001, 192.0, 0.0, 0.0, 0.0, 0.0, 0.0, 0.0, 0.0, 0.0, 0.0, 1.769680280171844E9, 0.0, 2026-01-29 15:21:20.171
32.0, 71793.89259742411, -103465.30866209372, 56469.40248839885, -167336.29016116742, -128237.34471051034, -83794.16421582273, -85661.80892727482, -78992.65187891149, -0.764, -0.29, 0.5680000000000001, 192.0, 0.0, 0.0, 0.0, 0.0, 0.0, 0.0, 0.0, 0.0, 0.0, 1.769680280171985E9, 0.0, 2026-01-29 15:21:20.171
33.0, 71760.02970457432, -101707.52277463947, 67413.37536732857, -166259.18194761063, -128238.97638785558, -83796.55585247945, -85664.89346800966, -78997.70337315838, -0.764, -0.29, 0.5680000000000001, 192.0, 0.0, 0.0, 0.0, 0.0, 0.0, 0.0, 0.0, 0.0, 0.0, 1.769680280172101E9, 0.0, 2026-01-29 15:21:20.172
34.0, 71893.73783990597, -112944.07998848916, -6448.612385822819, -178811.02756393285, -128249.30289379394, -83806.07769561741, -85669.58733434527, -79004.61006219508, -0.764, -0.29, 0.5680000000000001, 192.0, 0.0, 0.0, 0.0, 0.0, 0.0, 0.0, 0.0, 0.0, 0.0, 1.769680280172246E9, 0.0, 2026-01-29 15:21:20.172
35.0, 72024.71906241406, -121225.66953011388, -78526.95328318517, -187297.2473260459, -128257.01424563101, -83814.95133816617, -85673.5212413694, -79010.98030936484, -0.764, -0.29, 0.5680000000000001, 192.0, 0.0, 0.0, 0.0, 0.0, 0.0, 0.0, 0.0, 0.0, 0.0, 1.769680280172385E9, 0.0, 2026-01-29 15:21:20.172
36.0, 71997.94167255661, -115997.75296422876, -36456.07518626156, -180936.6114063992, -128255.2708095635, -83816.67242248922, -85675.51054662593, -79015.2941960447, -0.764, -0.29, 0.5680000000000001, 192.0, 0.0, 0.0, 0.0, 0.0, 0.0, 0.0, 0.0, 0.0, 0.0, 1.769680280172502E9, 0.0, 2026-01-29 15:21:20.172
37.0, 71852.05183649682, -103352.38764910551, 57573.33279530201, -167116.66192014958, -128245.50309723653, -83810.54804450847, -85673.49888962494, -79015.62947221154, -0.764, -0.29, 0.5680000000000001, 192.0, 0.0, 0.0, 0.0, 0.0, 0.0, 0.0, 0.0, 0.0, 0.0, 1.769680280172601E9, 0.0, 2026-01-29 15:21:20.172
38.0, 71821.04996693731, -101832.42432265573, 67407.42980330346, -166253.21403184105, -128248.02884435999, -83813.67728873221, -85677.25398269344, -79021.48562925884, -0.778, -0.28, 0.562, 192.0, 231.0, 176.0, 247.0, 64.0, 17.0, 144.0, 0.0, 0.0, 0.0, 1.769680280172681E9, 0.0, 2026-01-29 15:21:20.172
39.0, 71953.99814295747, -113137.78020593885, -6734.804121828571, -178904.0778761003, -128256.4778037641, -83821.27688184702, -85679.95854377253, -79026.47006827236, -0.778, -0.28, 0.562, 192.0, 0.0, 0.0, 0.0, 0.0, 0.0, 0.0, 0.0, 0.0, 0.0, 1.769680280172824E9, 0.0, 2026-01-29 15:21:20.172
40.0, 72082.54302531994, -121236.95716106382, -78323.17242898613, -187244.9442440205, -128263.60801024533, -83829.41291682875, -85683.57952637429, -79032.3038735752, -0.778, -0.28, 0.562, 192.0, 0.0, 0.0, 0.0, 0.0, 0.0, 0.0, 0.0, 0.0, 0.0, 1.769680280172974E9, 0.0, 2026-01-29 15:21:20.172
41.0, 72051.6082109938, -115824.77281388913, -34163.36735050289, -180709.47297924437, -128260.36700729931, -83829.54702729548, -85684.2277269635, -79035.14254512102, -0.778, -0.28, 0.562, 192.0, 0.0, 0.0, 0.0, 0.0, 0.0, 0.0, 0.0, 0.0, 0.0, 1.769680280173104E9, 0.0, 2026-01-29 15:21:20.173
42.0, 71904.69019468906, -103224.64742954343, 58663.40502064288, -166891.84807441809, -128249.86168740533, -83822.81915221443, -85681.50081413994, -79034.56139976518, -0.778, -0.28, 0.562, 192.0, 0.0, 0.0, 0.0, 0.0, 0.0, 0.0, 0.0, 0.0, 0.0, 1.769680280173198E9, 0.0, 2026-01-29 15:21:20.173
43.0, 71869.93323206106, -101929.74381801413, 67453.22852769238, -166245.45797651506, -128246.6206844593, -83820.36046032434, -85679.4668053945, -79034.71786197637, -0.778, -0.28, 0.562, 192.0, 0.0, 0.0, 0.0, 0.0, 0.0, 0.0, 0.0, 0.0, 0.0, 1.769680280173294E9, 0.0, 2026-01-29 15:21:20.173
44.0, 72003.61901564825, -113270.97425114803, -6675.527295533097, -178960.11369944975, -128255.51667875251, -83828.22827437261, -85682.50664264044, -79039.88111494554, -0.778, -0.28, 0.562, 192.0, 0.0, 0.0, 0.0, 0.0, 0.0, 0.0, 0.0, 0.0, 0.0, 1.769680280173376E9, 0.0, 2026-01-29 15:21:20.173
45.0, 72129.92872356519, -121200.56852109058, -77956.51441294127, -187162.71217616944, -128262.35631255584, -83836.1854953987, -85685.81470081981, -79045.40199582602, -0.778, -0.28, 0.562, 192.0, 0.0, 0.0, 0.0, 0.0, 0.0, 0.0, 0.0, 0.0, 0.0, 1.769680280173482E9, 0.0, 2026-01-29 15:21:20.173
46.0, 72098.25630167202, -115630.64791329479, -31486.053047901758, -180442.77196440363, -128260.43406253267, -83837.8395244884, -85687.93811654307, -79049.8052894837, -0.778, -0.28, 0.562, 192.0, 0.0, 0.0, 0.0, 0.0, 0.0, 0.0, 0.0, 0.0, 0.0, 1.769680280232019E9, 0.0, 2026-01-29 15:21:20.232
47.0, 71955.07102669132, -103111.77112004414, 59818.476118859784, -166664.39672284087, -128253.86264966281, -83834.95614945366, -85689.01100027694, -79053.04629242973, -0.778, -0.28, 0.562, 192.0, 0.0, 0.0, 0.0, 0.0, 0.0, 0.0, 0.0, 0.0, 0.0, 1.769680280232139E9, 0.0, 2026-01-29 15:21:20.232
48.0, 71925.43261354358, -102055.15945615286, 67488.4325252095, -166235.86907814373, -128253.46031826263, -83835.22437038712, -85689.59214563276, -79055.77320525327, -0.778, -0.28400000000000003, 0.556, 192.0, 231.0, 176.0, 247.0, 32.0, 17.0, 96.0, 0.0, 0.0, 0.0, 1.76968028023225E9, 0.0, 2026-01-29 15:21:20.232
49.0, 72061.66649599868, -113448.00006723405, -6658.942301147259, -179040.62468297777, -128263.6750654787, -83844.50034433608, -85694.04014277937, -79062.4116733565, -0.778, -0.28400000000000003, 0.556, 192.0, 0.0, 0.0, 0.0, 0.0, 0.0, 0.0, 0.0, 0.0, 0.0, 1.769680280232377E9, 0.0, 2026-01-29 15:21:20.232
50.0, 72186.3892300593, -121183.04475343761, -77549.9585330437, -187087.87853573306, -128271.05114114896, -83852.97165548464, -85698.08580852578, -79068.49134784834, -0.778, -0.28400000000000003, 0.556, 192.0, 0.0, 0.0, 0.0, 0.0, 0.0, 0.0, 0.0, 0.0, 0.0, 1.769680280232505E9, 0.0, 2026-01-29 15:21:20.232
51.0, 72150.15705229725, -115444.7037511711, -28695.661270101224, -180180.2283740316, -128267.34075156937, -83852.81519327345, -85698.35402945925, -79071.10650194962, -0.778, -0.28400000000000003, 0.556, 192.0, 0.0, 0.0, 0.0, 0.0, 0.0, 0.0, 0.0, 0.0, 0.0, 1.769680280232617E9, 0.0, 2026-01-29 15:21:20.232
52.0, 72003.68607088162, -102986.60135109442, 60927.748492687766, -166398.65683301174, -128257.86361192031, -83847.02609145953, -85696.6776486251, -79071.77705428327, -0.778, -0.28400000000000003, 0.556, 192.0, 0.0, 0.0, 0.0, 0.0, 0.0, 0.0, 0.0, 0.0, 0.0, 1.769680280232709E9, 0.0, 2026-01-29 15:21:20.232
53.0, 71975.8357972903, -102153.19420733383, 67548.26814511635, -166171.45135062354, -128257.48363226459, -83847.18255367072, -85697.19173874757, -79074.414560129, -0.778, -0.28400000000000003, 0.556, 192.0, 0.0, 0.0, 0.0, 0.0, 0.0, 0.0, 0.0, 0.0, 0.0, 1.769680280232794E9, 0.0, 2026-01-29 15:21:20.232
54.0, 72110.2144849556, -113615.5710954155, -6517.589869211897, -179088.2786021565, -128265.39614980176, -83854.06689096295, -85699.1810440041, -79078.54963285323, -0.778, -0.28400000000000003, 0.556, 192.0, 0.0, 0.0, 0.0, 0.0, 0.0, 0.0, 0.0, 0.0, 0.0, 1.769680280232903E9, 0.0, 2026-01-29 15:21:20.232
55.0, 72234.73605331613, -121186.9563087173, -77113.00428068689, -187009.33450571712, -128273.93451618368, -83863.67814107874, -85704.36664871773, -79085.8139498012, -0.778, -0.28400000000000003, 0.556, 192.0, 0.0, 0.0, 0.0, 0.0, 0.0, 0.0, 0.0, 0.0, 0.0, 1.769680280233009E9, 0.0, 2026-01-29 15:21:20.233
56.0, 72196.67103250873, -115298.52334243339, -26044.789081190716, -179939.27656880338, -128270.20177485966, -83863.56638235645, -85704.94779407357, -79088.60791785811, -0.778, -0.28400000000000003, 0.556, 192.0, 0.0, 0.0, 0.0, 0.0, 0.0, 0.0, 0.0, 0.0, 0.0, 1.769680280233122E9, 0.0, 2026-01-29 15:21:20.233
57.0, 72048.56837374787, -102916.05924559347, 61909.124184742475, -166172.5242343574, -128258.8694404208, -83856.01149273057, -85701.37151496072, -79087.37857191308, -0.778, -0.28400000000000003, 0.556, 192.0, 0.0, 0.0, 0.0, 0.0, 0.0, 0.0, 0.0, 0.0, 0.0, 1.769680280233235E9, 0.0, 2026-01-29 15:21:20.233
58.0, 72022.72975715755, -102313.67973252294, 67598.76073584089, -166165.90811799862, -128257.9753706426, -83855.7432717971, -85701.32681147181, -79089.45728414741, -0.784, -0.28400000000000003, 0.552, 192.0, 231.0, 128.0, 247.0, 32.0, 17.0, 64.0, 0.0, 0.0, 0.0, 1.769680280233328E9, 0.0, 2026-01-29 15:21:20.233
59.0, 72160.32709602441, -113796.73198422576, -6354.578596899342, -179132.49035268908, -128268.0783591364, -83864.90748702378, -85705.39482896267, -79095.73812433936, -0.784, -0.28400000000000003, 0.552, 192.0, 0.0, 0.0, 0.0, 0.0, 0.0, 0.0, 0.0, 0.0, 0.0, 1.769680280233429E9, 0.0, 2026-01-29 15:21:20.233
60.0, 72281.49590271663, -121186.82219825056, -76630.67598708582, -186907.7234754233, -128275.20856561764, -83873.06587374996, -85709.23932900898, -79101.63898487556, -0.784, -0.28400000000000003, 0.552, 192.0, 0.0, 0.0, 0.0, 0.0, 0.0, 0.0, 0.0, 0.0, 0.0, 1.769680280233523E9, 0.0, 2026-01-29 15:21:20.233
61.0, 72241.39687316382, -115174.85114036217, -23503.999233722596, -179689.89815591552, -128271.00643766003, -83872.5964871164, -85709.37343947572, -79104.07532502119, -0.784, -0.28400000000000003, 0.552, 192.0, 0.0, 0.0, 0.0, 0.0, 0.0, 0.0, 0.0, 0.0, 0.0, 1.769680280292632E9, 0.0, 2026-01-29 15:21:20.292
62.0, 72095.50703710402, -102896.21089651715, 62768.23583462666, -165999.8793601846, -128261.68576022217, -83866.91914402475, -85707.74176213048, -79104.76822909931, -0.784, -0.28400000000000003, 0.552, 192.0, 0.0, 0.0, 0.0, 0.0, 0.0, 0.0, 0.0, 0.0, 0.0, 1.769680280292752E9, 0.0, 2026-01-29 15:21:20.292
63.0, 72071.81418798139, -102489.16327824155, 67595.13975323913, -166203.41434519464, -128260.90344916625, -83866.67327483575, -85707.69705864157, -79106.84694133366, -0.784, -0.28400000000000003, 0.552, 192.0, 0.0, 0.0, 0.0, 0.0, 0.0, 0.0, 0.0, 0.0, 0.0, 1.769680280292842E9, 0.0, 2026-01-29 15:21:20.292
64.0, 72207.80220124748, -113964.1018467071, -6401.025521877471, -179199.76910349957, -128269.37476031481, -83873.98229527262, -85710.15575053165, -79111.49610418035, -0.784, -0.28400000000000003, 0.552, 192.0, 0.0, 0.0, 0.0, 0.0, 0.0, 0.0, 0.0, 0.0, 0.0, 1.769680280292986E9, 0.0, 2026-01-29 15:21:20.292
65.0, 72326.80288872754, -121192.11956168647, -76229.77509853544, -186830.0511634411, -128276.01322841803, -83881.78305408753, -85713.68732615559, -79116.99463331635, -0.784, -0.28400000000000003, 0.552, 192.0, 0.0, 0.0, 0.0, 0.0, 0.0, 0.0, 0.0, 0.0, 0.0, 1.76968028029309E9, 0.0, 2026-01-29 15:21:20.293
66.0, 72285.7650859076, -115066.15460707601, -21304.721689787115, -179480.0599789691, -128272.68281849418, -83881.98421978763, -85714.60374767825, -79120.28033975129, -0.784, -0.28400000000000003, 0.552, 192.0, 0.0, 0.0, 0.0, 0.0, 0.0, 0.0, 0.0, 0.0, 0.0, 1.769680280293187E9, 0.0, 2026-01-29 15:21:20.293
67.0, 72141.46222370413, -102880.51997190953, 63477.59079666028, -165854.16833808046, -128265.01617014602, -83877.75974008557, -85714.44728546707, -79122.426107219, -0.784, -0.28400000000000003, 0.552, 192.0, 0.0, 0.0, 0.0, 0.0, 0.0, 0.0, 0.0, 0.0, 0.0, 1.769680280293285E9, 0.0, 2026-01-29 15:21:20.293
68.0, 72125.34661595186, -102671.37469904122, 67498.7813828923, -166251.78352019592, -128269.95590567063, -83883.41473143277, -85720.19168379209, -79130.11510731162, -0.784, -0.28800000000000003, 0.544, 192.0, 231.0, 128.0, 247.0, 0.0, 17.0, 0.0, 0.0, 0.0, 0.0, 1.769680280293372E9, 0.0, 2026-01-29 15:21:20.293
69.0, 72262.6086786519, -114176.62223298816, -7075.489410816362, -179323.55306429305, -128278.94130694168, -83891.50606292559, -85723.231521038, -79135.32306376971, -0.784, -0.28800000000000003, 0.544, 192.0, 0.0, 0.0, 0.0, 0.0, 0.0, 0.0, 0.0, 0.0, 0.0, 1.769680280293487E9, 0.0, 2026-01-29 15:21:20.293
70.0, 72379.97768878672, -121237.22538199728, -76084.66757353158, -186801.10565437147, -128285.69153376718, -83899.3068217405, -85726.7407449175, -79141.00040686136, -0.784, -0.28800000000000003, 0.544, 192.0, 0.0, 0.0, 0.0, 0.0, 0.0, 0.0, 0.0, 0.0, 0.0, 1.769680280293575E9, 0.0, 2026-01-29 15:21:20.293
71.0, 72335.52006906511, -114956.11696912254, -19427.30926600805, -179286.1809475638, -128281.04237092048, -83898.2562897511, -85726.5842827063, -79143.10147084016, -0.784, -0.28800000000000003, 0.544, 192.0, 0.0, 0.0, 0.0, 0.0, 0.0, 0.0, 0.0, 0.0, 0.0, 1.769680280293672E9, 0.0, 2026-01-29 15:21:20.293
72.0, 72191.35131732837, -102811.22956409807, 64106.725347843814, -165681.07642901855, -128273.35337082784, -83894.25532749359, -85726.5395792174, -79145.51545924133, -0.784, -0.28800000000000003, 0.544, 192.0, 0.0, 0.0, 0.0, 0.0, 0.0, 0.0, 0.0, 0.0, 0.0, 1.769680280293771E9, 0.0, 2026-01-29 15:21:20.293
73.0, 72172.37468628582, -102807.94385766315, 67382.5076082358, -166304.33247141034, -128273.04044640547, -83894.41178970478, -85726.67368968412, -79147.84004066468, -0.784, -0.28800000000000003, 0.544, 192.0, 0.0, 0.0, 0.0, 0.0, 0.0, 0.0, 0.0, 0.0, 0.0, 1.769680280293869E9, 0.0, 2026-01-29 15:21:20.293
74.0, 72310.48611527517, -114364.57805211283, -7799.551820701578, -179448.94635068733, -128281.8246819764, -83902.21254851969, -85729.60176820777, -79152.80212793376, -0.784, -0.28800000000000003, 0.544, 192.0, 0.0, 0.0, 0.0, 0.0, 0.0, 0.0, 0.0, 0.0, 0.0, 1.769680280293952E9, 0.0, 2026-01-29 15:21:20.293
75.0, 72423.67534919684, -121257.14078630696, -75857.149166721, -186761.94539808578, -128286.29503086748, -83907.7557811446, -85730.94287287508, -79156.17724134651, -0.784, -0.28800000000000003, 0.544, 192.0, 0.0, 0.0, 0.0, 0.0, 0.0, 0.0, 0.0, 0.0, 0.0, 1.769680280294043E9, 0.0, 2026-01-29 15:21:20.294
76.0, 72379.86593006444, -114818.51963025566, -17249.35528628293, -179053.54399127295, -128284.90922271124, -83909.94625210122, -85733.96035837656, -79161.5863635047, -0.784, -0.28800000000000003, 0.544, 192.0, 0.0, 0.0, 0.0, 0.0, 0.0, 0.0, 0.0, 0.0, 0.0, 1.76968028035275E9, 0.0, 2026-01-29 15:21:20.352
77.0, 72233.59611434891, -102731.21031894807, 64747.4828061441, -165480.13424636534, -128275.52149004002, -83903.97833633165, -85732.17221882012, -79162.189860605, -0.784, -0.28800000000000003, 0.544, 192.0, 0.0, 0.0, 0.0, 0.0, 0.0, 0.0, 0.0, 0.0, 0.0, 1.769680280352861E9, 0.0, 2026-01-29 15:21:20.352
78.0, 72215.55825657348, -102944.06598139596, 67274.10164762755, -166346.9125445977, -128274.15803362823, -83902.99485957561, -85731.16639031963, -79163.4415582945, -0.786, -0.28800000000000003, 0.55, 192.0, 231.0, 112.0, 247.0, 0.0, 17.0, 48.0, 0.0, 0.0, 0.0, 1.769680280352947E9, 0.0, 2026-01-29 15:21:20.352
79.0, 72353.53557509609, -114534.04897857297, -8396.902191269659, -179559.7439479523, -128282.11525465433, -83909.94625210122, -85733.2898060429, -79167.46487229645, -0.786, -0.28800000000000003, 0.55, 192.0, 0.0, 0.0, 0.0, 0.0, 0.0, 0.0, 0.0, 0.0, 0.0, 1.769680280353087E9, 0.0, 2026-01-29 15:21:20.353
80.0, 72466.18836715083, -121255.33029500608, -75522.6776626918, -186721.15346445484, -128288.30668786845, -83917.36703126038, -85736.48610550001, -79172.71753224343, -0.786, -0.28800000000000003, 0.55, 192.0, 0.0, 0.0, 0.0, 0.0, 0.0, 0.0, 0.0, 0.0, 0.0, 1.769680280353181E9, 0.0, 2026-01-29 15:21:20.353
81.0, 72418.0427095941, -114654.3684189759, -14834.74103626502, -178809.3064796098, -128284.90922271124, -83917.59054870493, -85737.62604446722, -79176.27145961183, -0.786, -0.28800000000000003, 0.55, 192.0, 0.0, 0.0, 0.0, 0.0, 0.0, 0.0, 0.0, 0.0, 0.0, 1.769680280353273E9, 0.0, 2026-01-29 15:21:20.353
82.0, 72272.19757702322, -102632.59442241126, 65415.62115140214, -165270.02784848545, -128276.30380109594, -83912.49435096912, -85736.6872712001, -79177.72432300143, -0.786, -0.28800000000000003, 0.55, 192.0, 0.0, 0.0, 0.0, 0.0, 0.0, 0.0, 0.0, 0.0, 0.0, 1.769680280353364E9, 0.0, 2026-01-29 15:21:20.353
83.0, 72259.81471059498, -103071.47092479121, 67155.12331189195, -166371.74533268754, -128278.49427205257, -83915.02009809257, -85739.07890785682, -79182.30643061477, -0.786, -0.28800000000000003, 0.55, 192.0, 0.0, 0.0, 0.0, 0.0, 0.0, 0.0, 0.0, 0.0, 0.0, 1.76968028035346E9, 0.0, 2026-01-29 15:21:20.353
84.0, 72400.0942587965, -114722.92121922031, -9045.415704895939, -179692.24508908333, -128288.37374310181, -83923.78198191905, -85742.92340790313, -79188.02847719533, -0.786, -0.28800000000000003, 0.55, 192.0, 0.0, 0.0, 0.0, 0.0, 0.0, 0.0, 0.0, 0.0, 0.0, 1.769680280353542E9, 0.0, 2026-01-29 15:21:20.353
85.0, 72510.04248977214, -121262.50520497623, -75156.26551583594, -186672.44901328674, -128293.69345828217, -83930.21928432219, -85745.40445153767, -79192.32001213075, -0.786, -0.28800000000000003, 0.55, 192.0, 0.0, 0.0, 0.0, 0.0, 0.0, 0.0, 0.0, 0.0, 0.0, 1.769680280353623E9, 0.0, 2026-01-29 15:21:20.353
86.0, 72457.78411123564, -114475.48740810006, -12372.226997879387, -178554.25072363028, -128289.20075764666, -83929.32521454398, -85745.44915502658, -79194.8904627431, -0.786, -0.28800000000000003, 0.55, 192.0, 0.0, 0.0, 0.0, 0.0, 0.0, 0.0, 0.0, 0.0, 0.0, 1.769680280353716E9, 0.0, 2026-01-29 15:21:20.353
87.0, 72310.95550190873, -102495.8464498337, 66066.86157785196, -165029.23250546845, -128279.76832148652, -83923.51376098559, -85743.72807070352, -79195.82923601022, -0.786, -0.28800000000000003, 0.55, 192.0, 0.0, 0.0, 0.0, 0.0, 0.0, 0.0, 0.0, 0.0, 0.0, 1.769680280353812E9, 0.0, 2026-01-29 15:21:20.353
88.0, 72299.69022270326, -103166.97992884874, 67091.75611636115, -166375.99216413405, -128280.55063254245, -83924.69840344173, -85744.6891957151, -79198.98083197842, -0.784, -0.28800000000000003, 0.548, 192.0, 231.0, 128.0, 247.0, 0.0, 17.0, 32.0, 0.0, 0.0, 0.0, 1.769680280353909E9, 0.0, 2026-01-29 15:21:20.353
89.0, 72442.54022151712, -114893.1744567364, -9455.525512161912, -179801.54511946978, -128291.45828383665, -83934.5108192576, -85749.49482077299, -79205.5969483372, -0.784, -0.28800000000000003, 0.548, 192.0, 0.0, 0.0, 0.0, 0.0, 0.0, 0.0, 0.0, 0.0, 0.0, 1.769680280354004E9, 0.0, 2026-01-29 15:21:20.354
90.0, 72548.95687686883, -121262.30403927613, -74617.18614306285, -186611.1381782458, -128294.72163852712, -83938.98116814866, -85749.986559151, -79207.85447452718, -0.784, -0.28800000000000003, 0.548, 192.0, 0.0, 0.0, 0.0, 0.0, 0.0, 0.0, 0.0, 0.0, 0.0, 1.769680280354101E9, 0.0, 2026-01-29 15:21:20.354
91.0, 72492.98810875275, -114305.34592930626, -9594.016920806995, -178290.52249080213, -128288.66431577974, -83936.58953149195, -85748.71250971705, -79209.10617221668, -0.784, -0.28800000000000003, 0.548, 192.0, 0.0, 0.0, 0.0, 0.0, 0.0, 0.0, 0.0, 0.0, 0.0, 1.76968028041298E9, 0.0, 2026-01-29 15:21:20.412
92.0, 72348.75230178265, -102397.81169865272, 66719.37605373574, -164808.151401061, -128281.6235162763, -83933.08030761246, -85749.47246902854, -79212.32482341824, -0.784, -0.28800000000000003, 0.548, 192.0, 0.0, 0.0, 0.0, 0.0, 0.0, 0.0, 0.0, 0.0, 0.0, 1.76968028041309E9, 0.0, 2026-01-29 15:21:20.413
93.0, 72340.01276970062, -103299.97280835782, 67074.50056964166, -166405.5188185595, -128282.6293447768, -83934.28730181305, -85750.32183531784, -79215.43171589753, -0.784, -0.28800000000000003, 0.548, 192.0, 0.0, 0.0, 0.0, 0.0, 0.0, 0.0, 0.0, 0.0, 0.0, 1.769680280413175E9, 0.0, 2026-01-29 15:21:20.413
94.0, 72484.44974237082, -115043.1546620315, -9497.077405104328, -179875.86466978368, -128294.52047282702, -83945.15024961832, -85756.0885853873, -79223.00895726788, -0.784, -0.28800000000000003, 0.548, 192.0, 0.0, 0.0, 0.0, 0.0, 0.0, 0.0, 0.0, 0.0, 0.0, 1.76968028041331E9, 0.0, 2026-01-29 15:21:20.413
95.0, 72591.49224656729, -121231.14570750543, -73873.32008759024, -186522.78173241398, -128300.06370545193, -83951.90047644383, -85759.0390156554, -79227.68047185904, -0.784, -0.28800000000000003, 0.548, 192.0, 0.0, 0.0, 0.0, 0.0, 0.0, 0.0, 0.0, 0.0, 0.0, 1.769680280413501E9, 0.0, 2026-01-29 15:21:20.413
96.0, 72533.1765452834, -114137.6407906581, -6760.218055274255, -178037.7689645015, -128293.3358303709, -83948.95004617573, -85757.11676563225, -79228.37337593715, -0.784, -0.28800000000000003, 0.548, 192.0, 0.0, 0.0, 0.0, 0.0, 0.0, 0.0, 0.0, 0.0, 0.0, 1.769680280413634E9, 0.0, 2026-01-29 15:21:20.413
97.0, 72387.35376445696, -102337.03730547873, 67321.15206970598, -164638.94869553432, -128283.94809769966, -83943.1162408729, -85755.28392258691, -79229.13333524864, -0.784, -0.28800000000000003, 0.548, 192.0, 0.0, 0.0, 0.0, 0.0, 0.0, 0.0, 0.0, 0.0, 0.0, 1.769680280413722E9, 0.0, 2026-01-29 15:21:20.413
98.0, 72382.36932544343, -103428.85296688712, 67104.65307291187, -166433.6373130843, -128285.95975470064, -83945.26200834061, -85757.18382086561, -79233.22370448396, -0.782, -0.292, 0.546, 192.0, 231.0, 144.0, 246.0, 224.0, 17.0, 16.0, 0.0, 0.0, 0.0, 1.769680280413828E9, 0.0, 2026-01-29 15:21:20.413
99.0, 72526.73924288026, -115172.72772463891, -9334.75903686989, -179939.5224379924, -128297.06857169492, -83955.20853462322, -85762.16825987915, -79239.97393130946, -0.782, -0.292, 0.546, 192.0, 0.0, 0.0, 0.0, 0.0, 0.0, 0.0, 0.0, 0.0, 0.0, 1.769680280413925E9, 0.0, 2026-01-29 15:21:20.413
100.0, 72631.39011042, -121206.13410545995, -73057.12378706023, -186425.1940161221, -128301.60597581936, -83960.8635259704, -85764.17991688012, -79243.68432088904, -0.782, -0.292, 0.546, 192.0, 0.0, 0.0, 0.0, 0.0, 0.0, 0.0, 0.0, 0.0, 0.0, 1.769680280414011E9, 0.0, 2026-01-29 15:21:20.414
101.0, 72572.06858063562, -113976.30589917969, -3942.870073660621, -177760.71909197798, -128296.1297984278, -83959.05303466953, -85763.5987715243, -79245.67362614557, -0.782, -0.292, 0.546, 192.0, 0.0, 0.0, 0.0, 0.0, 0.0, 0.0, 0.0, 0.0, 0.0, 1.769680280414114E9, 0.0, 2026-01-29 15:21:20.414
102.0, 72426.31285504256, -102200.26698115672, 67889.44517248216, -164351.7287792836, -128287.56908030143, -83954.00154042263, -85762.5482395349, -79247.37235872417, -0.782, -0.292, 0.546, 192.0, 0.0, 0.0, 0.0, 0.0, 0.0, 0.0, 0.0, 0.0, 0.0, 1.769680280414217E9, 0.0, 2026-01-29 15:21:20.414
103.0, 72422.33424452951, -103498.70216830996, 67083.68713661279, -166378.31674555741, -128288.50785356855, -83955.14147938984, -85763.12938489072, -79250.2557337589, -0.782, -0.292, 0.546, 192.0, 0.0, 0.0, 0.0, 0.0, 0.0, 0.0, 0.0, 0.0, 0.0, 1.769680280414325E9, 0.0, 2026-01-29 15:21:20.414
104.0, 72565.38540904349, -115361.84583447527, -9603.404653478225, -180061.16063131817, -128296.59918506136, -83962.1152236599, -85765.05163491388, -79253.72025414948, -0.782, -0.292, 0.546, 192.0, 0.0, 0.0, 0.0, 0.0, 0.0, 0.0, 0.0, 0.0, 0.0, 1.769680280414426E9, 0.0, 2026-01-29 15:21:20.414
105.0, 72671.6008986951, -121265.29917303314, -72438.98629414872, -186425.81986496688, -128303.6846880537, -83970.40772085282, -85769.67844601613, -79259.9563908525, -0.782, -0.292, 0.546, 192.0, 0.0, 0.0, 0.0, 0.0, 0.0, 0.0, 0.0, 0.0, 0.0, 1.769680280414527E9, 0.0, 2026-01-29 15:21:20.414
106.0, 72611.47470611033, -113828.87379275249, -1295.4624051406868, -177505.0598388982, -128300.55544382996, -83971.1676801643, -85771.6453995282, -79264.58320195475, -0.782, -0.292, 0.546, 192.0, 0.0, 0.0, 0.0, 0.0, 0.0, 0.0, 0.0, 0.0, 0.0, 1.769680280473395E9, 0.0, 2026-01-29 15:21:20.473
107.0, 72463.7073235163, -102057.21581664274, 68408.18445780092, -164055.90344141764, -128290.92184196971, -83965.13270916138, -85769.56668729386, -79265.34316126624, -0.782, -0.292, 0.546, 192.0, 0.0, 0.0, 0.0, 0.0, 0.0, 0.0, 0.0, 0.0, 0.0, 1.769680280473505E9, 0.0, 2026-01-29 15:21:20.473
108.0, 72462.07564617106, -103604.40356783911, 67041.1741186588, -166365.24097505104, -128291.6818012812, -83965.9150202173, -85769.99137043851, -79267.77950141186, -0.784, -0.292, 0.55, 192.0, 231.0, 128.0, 246.0, 224.0, 17.0, 48.0, 0.0, 0.0, 0.0, 1.769680280473585E9, 0.0, 2026-01-29 15:21:20.473
109.0, 72607.92077874193, -115565.8278543744, -9891.228066829213, -180170.23714426009, -128300.95777523016, -83974.05105519904, -85773.00885593997, -79272.33925728075, -0.784, -0.292, 0.55, 192.0, 0.0, 0.0, 0.0, 0.0, 0.0, 0.0, 0.0, 0.0, 0.0, 1.76968028047371E9, 0.0, 2026-01-29 15:21:20.473
110.0, 72714.40448932702, -121311.45552533335, -71689.15232290654, -186380.13289930022, -128310.09963871237, -83984.39991288184, -85779.66967578765, -79280.60940272921, -0.784, -0.292, 0.55, 192.0, 0.0, 0.0, 0.0, 0.0, 0.0, 0.0, 0.0, 0.0, 0.0, 1.769680280473802E9, 0.0, 2026-01-29 15:21:20.473
111.0, 72650.59025890712, -113691.34350911899, 1411.80323503056, -177244.39379506037, -128305.80810377696, -83983.90817450383, -85780.4966903325, -79284.25273707543, -0.784, -0.292, 0.55, 192.0, 0.0, 0.0, 0.0, 0.0, 0.0, 0.0, 0.0, 0.0, 0.0, 1.769680280473895E9, 0.0, 2026-01-29 15:21:20.473
112.0, 72499.44776290032, -101967.85354231043, 68884.8577600548, -163838.89035450105, -128293.20171990416, -83974.94512497725, -85775.46754783006, -79282.08461786326, -0.784, -0.292, 0.55, 192.0, 0.0, 0.0, 0.0, 0.0, 0.0, 0.0, 0.0, 0.0, 0.0, 1.769680280474E9, 0.0, 2026-01-29 15:21:20.474
113.0, 72500.29712918962, -103725.43826406459, 66978.81275162849, -166377.08739961236, -128294.05108619346, -83976.08506394447, -85775.80282399688, -79284.6103649867, -0.784, -0.292, 0.55, 192.0, 0.0, 0.0, 0.0, 0.0, 0.0, 0.0, 0.0, 0.0, 0.0, 1.769680280474082E9, 0.0, 2026-01-29 15:21:20.474
114.0, 72649.74089261782, -115761.71854278071, -10257.684917173972, -180291.02597129656, -128305.96456598814, -83986.85860477193, -85781.45781534408, -79291.7182197235, -0.784, -0.292, 0.55, 192.0, 0.0, 0.0, 0.0, 0.0, 0.0, 0.0, 0.0, 0.0, 0.0, 1.769680280474164E9, 0.0, 2026-01-29 15:21:20.474
115.0, 72751.48603337837, -121370.26296499527, -71054.02750420899, -186345.3312331833, -128311.82072303543, -83993.8770525309, -85785.03409445693, -79296.65795524811, -0.784, -0.292, 0.55, 192.0, 0.0, 0.0, 0.0, 0.0, 0.0, 0.0, 0.0, 0.0, 0.0, 1.769680280474246E9, 0.0, 2026-01-29 15:21:20.474
116.0, 72685.12370409057, -113570.53233033804, 3725.6111175550363, -176988.8686524473, -128307.79740903348, -83993.69823857525, -85786.21873691306, -79300.79302797235, -0.784, -0.292, 0.55, 192.0, 0.0, 0.0, 0.0, 0.0, 0.0, 0.0, 0.0, 0.0, 0.0, 1.769680280474339E9, 0.0, 2026-01-29 15:21:20.474
117.0, 72536.46225171832, -101858.30764273497, 69282.71881135927, -163574.89390073944, -128298.67789729571, -83988.08795071697, -85784.49765259, -79302.11178089521, -0.784, -0.292, 0.55, 192.0, 0.0, 0.0, 0.0, 0.0, 0.0, 0.0, 0.0, 0.0, 0.0, 1.769680280474443E9, 0.0, 2026-01-29 15:21:20.474
118.0, 72540.64202793146, -103841.82379744337, 66858.76153215904, -166374.4722455111, -128300.48838859658, -83990.03255248458, -85785.7940537684, -79305.46454256351, -0.782, -0.296, 0.546, 192.0, 231.0, 144.0, 246.0, 192.0, 17.0, 16.0, 0.0, 0.0, 0.0, 1.769680280474534E9, 0.0, 2026-01-29 15:21:20.474
119.0, 72689.99638438183, -115981.5703012431, -10920.414140273828, -180435.15001954438, -128310.27845266802, -83998.63797409988, -85789.21387067006, -79310.2701676214, -0.782, -0.296, 0.546, 192.0, 0.0, 0.0, 0.0, 0.0, 0.0, 0.0, 0.0, 0.0, 0.0, 1.769680280474625E9, 0.0, 2026-01-29 15:21:20.474
120.0, 72790.15455128605, -121431.70791050291, -70467.89770935746, -186334.1777127001, -128315.84403703739, -84005.45525615875, -85792.61133582727, -79314.87462697919, -0.782, -0.296, 0.546, 192.0, 0.0, 0.0, 0.0, 0.0, 0.0, 0.0, 0.0, 0.0, 0.0, 1.769680280474717E9, 0.0, 2026-01-29 15:21:20.474
121.0, 72720.52886730777, -113441.83098576439, 5924.88866149052, -176745.9275419626, -128310.77019104603, -84004.24826195816, -85792.9019085052, -79318.13798166967, -0.782, -0.296, 0.546, 192.0, 0.0, 0.0, 0.0, 0.0, 0.0, 0.0, 0.0, 0.0, 0.0, 1.769680280533531E9, 0.0, 2026-01-29 15:21:20.533
122.0, 72573.58849925858, -101773.773345205, 69632.79183301829, -163346.92845903974, -128302.92472874222, -84000.0237822561, -85792.52192884946, -79320.95430147104, -0.782, -0.296, 0.546, 192.0, 0.0, 0.0, 0.0, 0.0, 0.0, 0.0, 0.0, 0.0, 0.0, 1.769680280533643E9, 0.0, 2026-01-29 15:21:20.533
123.0, 72582.81976971863, -104005.21504941166, 66670.62689907872, -166425.81420252493, -128306.65747006626, -84003.91298579134, -85795.62882132875, -79326.09520269575, -0.782, -0.296, 0.546, 192.0, 0.0, 0.0, 0.0, 0.0, 0.0, 0.0, 0.0, 0.0, 0.0, 1.769680280533728E9, 0.0, 2026-01-29 15:21:20.533
124.0, 72733.4705273474, -116238.88358341261, -11891.440974645731, -180623.70933576935, -128315.64287133729, -84011.5796341395, -85798.02045798546, -79329.80559227534, -0.782, -0.296, 0.546, 192.0, 0.0, 0.0, 0.0, 0.0, 0.0, 0.0, 0.0, 0.0, 0.0, 1.769680280533857E9, 0.0, 2026-01-29 15:21:20.533
125.0, 72831.01354015035, -121516.44337373298, -70007.96586370062, -186374.56731493084, -128319.9344062727, -84017.18992199778, -85800.03211498643, -79332.89013301017, -0.782, -0.296, 0.546, 192.0, 0.0, 0.0, 0.0, 0.0, 0.0, 0.0, 0.0, 0.0, 0.0, 1.76968028053394E9, 0.0, 2026-01-29 15:21:20.533
126.0, 72758.3703706706, -113256.31150678534, 8096.31593183469, -176482.3557713456, -128315.41935389274, -84016.74288710867, -85801.06029523138, -79337.20401969005, -0.782, -0.296, 0.546, 192.0, 0.0, 0.0, 0.0, 0.0, 0.0, 0.0, 0.0, 0.0, 0.0, 1.769680280534045E9, 0.0, 2026-01-29 15:21:20.534
127.0, 72605.90912174096, -101546.3666971167, 69979.15446509773, -163010.1323735872, -128304.01996422053, -84008.98683178269, -85797.17109169616, -79336.66757782311, -0.782, -0.296, 0.546, 192.0, 0.0, 0.0, 0.0, 0.0, 0.0, 0.0, 0.0, 0.0, 0.0, 1.769680280534127E9, 0.0, 2026-01-29 15:21:20.534
128.0, 72614.9392265009, -104069.92334960979, 66377.170846125, -166402.61309178034, -128304.46699910963, -84009.36681143842, -85796.6570015737, -79338.16514470162, -0.784, -0.28800000000000003, 0.552, 192.0, 231.0, 128.0, 247.0, 0.0, 17.0, 64.0, 0.0, 0.0, 0.0, 1.76968028053422E9, 0.0, 2026-01-29 15:21:20.534
129.0, 72772.429617933, -116543.58256382735, -13439.075760731193, -180899.77573153685, -128316.69340332669, -84020.22975924371, -85802.42375164316, -79344.75890931593, -0.784, -0.28800000000000003, 0.552, 192.0, 0.0, 0.0, 0.0, 0.0, 0.0, 0.0, 0.0, 0.0, 0.0, 1.76968028053431E9, 0.0, 2026-01-29 15:21:20.534
130.0, 72873.01246798187, -121698.230111388, -69833.57755346032, -186519.31721202342, -128324.9859005196, -84029.75160238167, -85808.59283311282, -79351.53148788589, -0.784, -0.28800000000000003, 0.552, 192.0, 0.0, 0.0, 0.0, 0.0, 0.0, 0.0, 0.0, 0.0, 0.0, 1.769680280534391E9, 0.0, 2026-01-29 15:21:20.534
131.0, 72794.71430715494, -113048.19441416198, 10154.352802557089, -176155.9755988092, -128320.1355719728, -84028.90223609237, -85809.50925463549, -79356.11359549924, -0.784, -0.28800000000000003, 0.552, 192.0, 0.0, 0.0, 0.0, 0.0, 0.0, 0.0, 0.0, 0.0, 0.0, 1.7696802805345E9, 0.0, 2026-01-29 15:21:20.534
132.0, 72642.45422392538, -101189.52109688772, 70323.70660587629, -162495.23758831475, -128311.95483350217, -84024.38718371239, -85808.99516451302, -79359.35459844525, -0.784, -0.28800000000000003, 0.552, 192.0, 0.0, 0.0, 0.0, 0.0, 0.0, 0.0, 0.0, 0.0, 0.0, 1.769680280534591E9, 0.0, 2026-01-29 15:21:20.534
133.0, 72657.31813398817, -104070.99623334364, 66137.04605544163, -166314.0554802484, -128314.52528411453, -84026.89057909139, -85810.49273139153, -79362.90852581365, -0.784, -0.28800000000000003, 0.552, 192.0, 0.0, 0.0, 0.0, 0.0, 0.0, 0.0, 0.0, 0.0, 0.0, 1.769680280534682E9, 0.0, 2026-01-29 15:21:20.534
134.0, 72815.99316787638, -116828.67906435479, -14738.24855545146, -181160.59823758583, -128324.40475516376, -84035.31718675104, -85813.64432735973, -79366.35069445976, -0.784, -0.28800000000000003, 0.552, 192.0, 0.0, 0.0, 0.0, 0.0, 0.0, 0.0, 0.0, 0.0, 0.0, 1.769680280534765E9, 0.0, 2026-01-29 15:21:20.534
135.0, 72909.9599015665, -121840.99070322403, -69474.4967787858, -186616.3461347039, -128327.0869644984, -84039.11698330844, -85814.31487969338, -79366.50715667095, -0.784, -0.28800000000000003, 0.552, 192.0, 0.0, 0.0, 0.0, 0.0, 0.0, 0.0, 0.0, 0.0, 0.0, 1.769680280534857E9, 0.0, 2026-01-29 15:21:20.534
136.0, 72827.59372324869, -112898.19185712241, 12102.374387070464, -175903.57970041988, -128322.08017374041, -84038.26761701914, -85815.36541168278, -79372.25155499596, -0.784, -0.28800000000000003, 0.552, 192.0, 0.0, 0.0, 0.0, 0.0, 0.0, 0.0, 0.0, 0.0, 0.0, 1.769680280593068E9, 0.0, 2026-01-29 15:21:20.593
137.0, 72674.43957024092, -100953.66548939532, 70603.14811505654, -162120.8235169439, -128315.03937423699, -84034.84780011748, -85815.8571500608, -79376.99012482048, -0.784, -0.28800000000000003, 0.552, 192.0, 0.0, 0.0, 0.0, 0.0, 0.0, 0.0, 0.0, 0.0, 0.0, 1.769680280593173E9, 0.0, 2026-01-29 15:21:20.593
138.0, 72691.73982044934, -104092.5209632541, 65925.35268370541, -166241.68053170212, -128317.20749344915, -84036.90416060736, -85816.77357158347, -79379.91820334413, -0.78, -0.28800000000000003, 0.548, 192.0, 231.0, 160.0, 247.0, 0.0, 17.0, 32.0, 0.0, 0.0, 0.0, 1.769680280593251E9, 0.0, 2026-01-29 15:21:20.593
139.0, 72855.04166543981, -117111.47333520334, -15886.658833820682, -181403.1593684148, -128327.6904615987, -84045.93426536731, -85820.28279546295, -79377.86184285425, -0.78, -0.28800000000000003, 0.548, 192.0, 0.0, 0.0, 0.0, 0.0, 0.0, 0.0, 0.0, 0.0, 0.0, 1.769680280593379E9, 0.0, 2026-01-29 15:21:20.593
140.0, 72951.69060846456, -122017.97181582116, -69143.60155386943, -186757.7879736171, -128334.1948192352, -84053.4891549932, -85823.30028096441, -79344.91537152712, -0.78, -0.28800000000000003, 0.548, 192.0, 0.0, 0.0, 0.0, 0.0, 0.0, 0.0, 0.0, 0.0, 0.0, 1.769680280593485E9, 0.0, 2026-01-29 15:21:20.593
141.0, 72863.91530798857, -112699.21662798127, 14064.857550246425, -175589.0459524448, -128329.32213894394, -84052.77389917063, -85825.60251064331, -79381.72869464502, -0.78, -0.28800000000000003, 0.548, 192.0, 0.0, 0.0, 0.0, 0.0, 0.0, 0.0, 0.0, 0.0, 0.0, 1.769680280593573E9, 0.0, 2026-01-29 15:21:20.593
142.0, 72705.0614601447, -100625.87715695825, 70879.9297666466, -161644.84311876813, -128319.64383359479, -84046.85068688997, -85824.08259202035, -79396.34673551879, -0.78, -0.28800000000000003, 0.548, 192.0, 0.0, 0.0, 0.0, 0.0, 0.0, 0.0, 0.0, 0.0, 0.0, 1.769680280593677E9, 0.0, 2026-01-29 15:21:20.593
143.0, 72724.70864352092, -104109.91062044032, 65683.08212555434, -166169.26087966692, -128320.783772562, -84047.72240492373, -85823.9037780647, -79398.00076460849, -0.78, -0.28800000000000003, 0.548, 192.0, 0.0, 0.0, 0.0, 0.0, 0.0, 0.0, 0.0, 0.0, 0.0, 1.769680280593753E9, 0.0, 2026-01-29 15:21:20.593
144.0, 72891.02797401286, -117380.76715240088, -17030.2187836431, -181637.45035379534, -128331.2443889671, -84056.86426840595, -85826.92126356617, -79373.0338660519, -0.78, -0.28800000000000003, 0.548, 192.0, 0.0, 0.0, 0.0, 0.0, 0.0, 0.0, 0.0, 0.0, 0.0, 1.769680280593831E9, 0.0, 2026-01-29 15:21:20.593
145.0, 72986.40286760365, -122150.29414299657, -68613.61934108965, -186826.2513668837, -128337.30171171448, -84064.32975105403, -85828.86586533379, -79235.83885858522, -0.78, -0.28800000000000003, 0.548, 192.0, 0.0, 0.0, 0.0, 0.0, 0.0, 0.0, 0.0, 0.0, 0.0, 1.769680280593908E9, 0.0, 2026-01-29 15:21:20.593
146.0, 72894.96188103699, -112548.5658703525, 16098.016929390065, -175303.0330303947, -128332.47373491213, -84063.68155046483, -85831.97275781307, -79356.94061004408, -0.78, -0.28800000000000003, 0.548, 192.0, 0.0, 0.0, 0.0, 0.0, 0.0, 0.0, 0.0, 0.0, 0.0, 1.769680280593995E9, 0.0, 2026-01-29 15:21:20.593
147.0, 72734.27519014779, -100466.30805329181, 71129.59875221238, -161336.7243214517, -128321.72254582914, -84056.46193700576, -85830.11756302328, -79413.02113688245, -0.78, -0.28800000000000003, 0.548, 192.0, 0.0, 0.0, 0.0, 0.0, 0.0, 0.0, 0.0, 0.0, 0.0, 1.769680280594083E9, 0.0, 2026-01-29 15:21:20.594
148.0, 72757.90098403704, -104223.16690959537, 65437.27999177933, -166202.29675797187, -128323.39892666329, -84057.80304167308, -85830.22932174556, -79415.12220086124, -0.782, -0.28600000000000003, 0.554, 192.0, 231.0, 144.0, 247.0, 16.0, 17.0, 80.0, 0.0, 0.0, 0.0, 1.769680280594176E9, 0.0, 2026-01-29 15:21:20.594
149.0, 72924.64499767363, -117600.79772481893, -18056.208557630605, -181830.2788532113, -128332.6972523567, -84065.4920417657, -85831.54807466842, -79349.27396169592, -0.782, -0.28600000000000003, 0.554, 192.0, 0.0, 0.0, 0.0, 0.0, 0.0, 0.0, 0.0, 0.0, 0.0, 1.769680280594266E9, 0.0, 2026-01-29 15:21:20.594
150.0, 73015.86246679575, -122144.8850208384, -67618.6090849172, -186754.21169450425, -128337.72639485913, -84071.92934416884, -85832.24097874654, -79104.5223599103, -0.782, -0.28600000000000003, 0.554, 192.0, 0.0, 0.0, 0.0, 0.0, 0.0, 0.0, 0.0, 0.0, 0.0, 1.769680280594358E9, 0.0, 2026-01-29 15:21:20.594
151.0, 72919.97348308247, -112350.03767610046, 18560.799188709163, -174976.67520960275, -128331.84788606738, -84070.40942554586, -85834.8114293589, -79324.91056023963, -0.782, -0.28600000000000003, 0.554, 192.0, 0.0, 0.0, 0.0, 0.0, 0.0, 0.0, 0.0, 0.0, 0.0, 1.769680280653411E9, 0.0, 2026-01-29 15:21:20.653
152.0, 72761.7678358278, -100417.53654689033, 71376.67493542134, -161135.2233451871, -128322.66131909625, -84064.86619292095, -85834.74437412553, -79428.08621264533, -0.782, -0.28600000000000003, 0.554, 192.0, 0.0, 0.0, 0.0, 0.0, 0.0, 0.0, 0.0, 0.0, 0.0, 1.769680280653531E9, 0.0, 2026-01-29 15:21:20.653
153.0, 72788.50052219637, -104419.21406021286, 65361.37346760911, -166291.256700904, -128324.56121737495, -84066.341408055, -85834.85613284781, -79430.5449045354, -0.782, -0.28600000000000003, 0.554, 192.0, 0.0, 0.0, 0.0, 0.0, 0.0, 0.0, 0.0, 0.0, 0.0, 1.76968028065362E9, 0.0, 2026-01-29 15:21:20.653
154.0, 72957.16678585611, -117720.13368846581, -18187.25683537207, -181873.9318101325, -128335.8935518138, -84076.08676863751, -85837.94067358263, -79318.85323749224, -0.782, -0.28600000000000003, 0.554, 192.0, 0.0, 0.0, 0.0, 0.0, 0.0, 0.0, 0.0, 0.0, 0.0, 1.769680280653753E9, 0.0, 2026-01-29 15:21:20.653
155.0, 73048.47366195604, -122038.13308931985, -66275.35865013106, -186570.05567193695, -128343.40373795078, -84084.78159723063, -85840.98051082857, -78980.06784678315, -0.782, -0.28600000000000003, 0.554, 192.0, 0.0, 0.0, 0.0, 0.0, 0.0, 0.0, 0.0, 0.0, 0.0, 1.769680280653853E9, 0.0, 2026-01-29 15:21:20.653
156.0, 72951.33298055327, -112192.43552594609, 20908.51466757234, -174720.81479082286, -128336.87702856983, -84082.52407104065, -85843.03687131844, -79292.47817903498, -0.782, -0.28600000000000003, 0.554, 192.0, 0.0, 0.0, 0.0, 0.0, 0.0, 0.0, 0.0, 0.0, 0.0, 1.769680280653964E9, 0.0, 2026-01-29 15:21:20.653
157.0, 72795.69778391097, -100509.223402646, 71583.76384779977, -161153.55177564046, -128327.42224066524, -84076.846727949, -85842.96981608508, -79446.28053263195, -0.782, -0.28600000000000003, 0.554, 192.0, 0.0, 0.0, 0.0, 0.0, 0.0, 0.0, 0.0, 0.0, 0.0, 1.769680280654057E9, 0.0, 2026-01-29 15:21:20.654
158.0, 72824.6879964695, -104673.46515339198, 65162.50999719024, -166495.1046103364, -128329.50095289957, -84078.47840529423, -85843.17098178518, -79449.23096290004, -0.778, -0.28600000000000003, 0.554, 192.0, 231.0, 176.0, 247.0, 16.0, 17.0, 80.0, 0.0, 0.0, 0.0, 1.76968028065414E9, 0.0, 2026-01-29 15:21:20.654
159.0, 72991.16378917263, -117832.562963076, -18696.921312441984, -181940.80822954277, -128339.67099662674, -84087.10617865398, -85844.82501087488, -79268.02537060087, -0.778, -0.28600000000000003, 0.554, 192.0, 0.0, 0.0, 0.0, 0.0, 0.0, 0.0, 0.0, 0.0, 0.0, 1.76968028065423E9, 0.0, 2026-01-29 15:21:20.654
160.0, 73075.42986576914, -121910.39286975776, -65062.91062389739, -186373.60618991926, -128342.71083387267, -84091.53182405613, -85843.66272016319, -78831.71931883327, -0.778, -0.28600000000000003, 0.554, 192.0, 0.0, 0.0, 0.0, 0.0, 0.0, 0.0, 0.0, 0.0, 0.0, 1.769680280654312E9, 0.0, 2026-01-29 15:21:20.654
161.0, 72976.5233965544, -112045.58456487472, 22970.1725208965, -174485.00388681935, -128334.91007505776, -84087.97789668773, -85844.44503121913, -79242.65614064409, -0.778, -0.28600000000000003, 0.554, 192.0, 0.0, 0.0, 0.0, 0.0, 0.0, 0.0, 0.0, 0.0, 0.0, 1.769680280654413E9, 0.0, 2026-01-29 15:21:20.654
162.0, 72827.01257789285, -100617.87523244324, 71764.65651567657, -161178.25045326358, -128329.07626975492, -84085.78742573112, -85848.04366207644, -79460.2056694276, -0.778, -0.28600000000000003, 0.554, 192.0, 0.0, 0.0, 0.0, 0.0, 0.0, 0.0, 0.0, 0.0, 0.0, 1.769680280654505E9, 0.0, 2026-01-29 15:21:20.654
163.0, 72858.77440676384, -104895.9097142112, 65220.40101532949, -166635.831193427, -128332.22786572312, -84088.64844902139, -85849.34006325484, -79465.12305320776, -0.778, -0.28600000000000003, 0.554, 192.0, 0.0, 0.0, 0.0, 0.0, 0.0, 0.0, 0.0, 0.0, 0.0, 1.769680280654597E9, 0.0, 2026-01-29 15:21:20.654
164.0, 73023.6855773551, -117831.95946597571, -18128.024712565508, -181854.32933024518, -128343.91782807324, -84098.81849274856, -85852.3128452674, -79217.10809673168, -0.778, -0.28600000000000003, 0.554, 192.0, 0.0, 0.0, 0.0, 0.0, 0.0, 0.0, 0.0, 0.0, 0.0, 1.769680280654679E9, 0.0, 2026-01-29 15:21:20.654
165.0, 73106.6552527732, -121701.04643118936, -63296.02757644982, -186082.38531141108, -128348.61169440887, -84104.94287072931, -85852.84928713433, -78704.64965160485, -0.778, -0.28600000000000003, 0.554, 192.0, 0.0, 0.0, 0.0, 0.0, 0.0, 0.0, 0.0, 0.0, 0.0, 1.769680280654772E9, 0.0, 2026-01-29 15:21:20.654
166.0, 73008.70990857005, -111941.49249094636, 25189.454876119482, -174313.47659986935, -128341.43678443872, -84102.03714395013, -85854.30215052393, -79201.41717212406, -0.778, -0.28600000000000003, 0.554, 192.0, 0.0, 0.0, 0.0, 0.0, 0.0, 0.0, 0.0, 0.0, 0.0, 1.769680280715108E9, 0.0, 2026-01-29 15:21:20.715
167.0, 72858.95322071949, -100814.68234237222, 71924.85146818776, -161341.61935348742, -128332.02670002302, -84096.22569039174, -85854.43626099065, -79475.13663472375, -0.778, -0.28600000000000003, 0.554, 192.0, 0.0, 0.0, 0.0, 0.0, 0.0, 0.0, 0.0, 0.0, 0.0, 1.769680280715226E9, 0.0, 2026-01-29 15:21:20.715
168.0, 72890.87151180167, -105128.23374607966, 65228.31353286667, -166851.65963788744, -128334.8430198244, -84098.594975304, -85855.39738600224, -79480.03166675946, -0.784, -0.28600000000000003, 0.546, 192.0, 231.0, 128.0, 247.0, 16.0, 17.0, 16.0, 0.0, 0.0, 0.0, 1.769680280715315E9, 0.0, 2026-01-29 15:21:20.715
169.0, 73052.80990038037, -117840.564887591, -17777.482304272926, -181824.668565353, -128345.41539495176, -84107.69213529731, -85857.14082206975, -79150.45519476595, -0.784, -0.28600000000000003, 0.546, 192.0, 0.0, 0.0, 0.0, 0.0, 0.0, 0.0, 0.0, 0.0, 0.0, 1.769680280715475E9, 0.0, 2026-01-29 15:21:20.715
170.0, 73134.43847113114, -121519.77378365681, -61330.43752079458, -185824.89321528593, -128351.40566246578, -84115.2023214343, -85859.13012732627, -78571.0979784844, -0.784, -0.28600000000000003, 0.546, 192.0, 0.0, 0.0, 0.0, 0.0, 0.0, 0.0, 0.0, 0.0, 0.0, 1.769680280715581E9, 0.0, 2026-01-29 15:21:20.715
171.0, 73037.43190019511, -111783.28684369169, 27757.357389611887, -174054.35282639897, -128345.61656065185, -84113.57064408906, -85862.03585410546, -79153.80795643425, -0.784, -0.28600000000000003, 0.546, 192.0, 0.0, 0.0, 0.0, 0.0, 0.0, 0.0, 0.0, 0.0, 0.0, 1.769680280715697E9, 0.0, 2026-01-29 15:21:20.715
172.0, 72889.39629666762, -100902.50234633713, 72104.00069999704, -161370.67662127933, -128335.55827564697, -84106.90982424139, -85861.521763983, -79490.02289653098, -0.784, -0.28600000000000003, 0.546, 192.0, 0.0, 0.0, 0.0, 0.0, 0.0, 0.0, 0.0, 0.0, 0.0, 1.769680280715798E9, 0.0, 2026-01-29 15:21:20.715
173.0, 72921.85102961672, -105305.1030999545, 65323.35315029063, -166983.1102470291, -128337.83815358141, -84108.69796379781, -85861.87939189427, -79493.9121000662, -0.784, -0.28600000000000003, 0.546, 192.0, 0.0, 0.0, 0.0, 0.0, 0.0, 0.0, 0.0, 0.0, 0.0, 1.769680280715884E9, 0.0, 2026-01-29 15:21:20.715
174.0, 73081.57659549435, -117838.2626579121, -17017.254771859025, -181765.12351812405, -128348.1423077753, -84117.41514413538, -85863.0193308615, -79081.00832474332, -0.784, -0.28600000000000003, 0.546, 192.0, 0.0, 0.0, 0.0, 0.0, 0.0, 0.0, 0.0, 0.0, 0.0, 1.769680280715971E9, 0.0, 2026-01-29 15:21:20.715
175.0, 73160.85823307732, -121327.86170576356, -59078.87924657813, -185558.19220044522, -128353.90905784478, -84124.63475759444, -85864.74041518455, -78446.82227931288, -0.784, -0.28600000000000003, 0.546, 192.0, 0.0, 0.0, 0.0, 0.0, 0.0, 0.0, 0.0, 0.0, 0.0, 1.769680280716058E9, 0.0, 2026-01-29 15:21:20.716
176.0, 73060.32008651734, -111565.44674223027, 30407.380212233093, -173742.16601159167, -128344.87895308483, -84119.82913253656, -85864.60630471782, -79103.94121455446, -0.784, -0.28600000000000003, 0.546, 192.0, 0.0, 0.0, 0.0, 0.0, 0.0, 0.0, 0.0, 0.0, 0.0, 1.769680280716158E9, 0.0, 2026-01-29 15:21:20.716
177.0, 72920.33111099376, -100903.23995390415, 72278.16549279279, -161290.63502438486, -128340.56506640496, -84118.97976624726, -85869.9707233871, -79506.13850428326, -0.784, -0.28600000000000003, 0.546, 192.0, 0.0, 0.0, 0.0, 0.0, 0.0, 0.0, 0.0, 0.0, 0.0, 1.769680280716256E9, 0.0, 2026-01-29 15:21:20.716
178.0, 72958.93257366808, -105494.31061676868, 65283.03060329326, -167096.09831525068, -128346.57768566343, -84124.63475759444, -85873.99403738906, -79510.58650142986, -0.78, -0.28800000000000003, 0.546, 192.0, 231.0, 160.0, 247.0, 0.0, 17.0, 16.0, 0.0, 0.0, 0.0, 1.769680280716351E9, 0.0, 2026-01-29 15:21:20.716
179.0, 73117.62995930076, -117955.58696455801, -16944.83511982383, -181804.3061261542, -128356.36774973485, -84132.97195827628, -85874.41872053371, -78988.36034397606, -0.78, -0.28800000000000003, 0.546, 192.0, 0.0, 0.0, 0.0, 0.0, 0.0, 0.0, 0.0, 0.0, 0.0, 1.76968028071645E9, 0.0, 2026-01-29 15:21:20.716
180.0, 73194.98934686057, -121247.28366700216, -57165.41345899266, -185383.1556896157, -128362.6485899268, -84140.72801360226, -85877.05622637943, -78302.85469327625, -0.78, -0.28800000000000003, 0.546, 192.0, 0.0, 0.0, 0.0, 0.0, 0.0, 0.0, 0.0, 0.0, 0.0, 1.769680280716543E9, 0.0, 2026-01-29 15:21:20.716
181.0, 73095.30056658991, -111434.82314763346, 32593.336116473212, -173517.17335190455, -128356.07717705694, -84138.42578392336, -85879.35845605833, -79052.73336800735, -0.78, -0.28800000000000003, 0.546, 192.0, 0.0, 0.0, 0.0, 0.0, 0.0, 0.0, 0.0, 0.0, 0.0, 1.769680280773501E9, 0.0, 2026-01-29 15:21:20.773
182.0, 72952.58467824277, -100952.23497775018, 72415.338148515, -161253.44172161125, -128347.42705195273, -84133.24017920974, -85880.34193281436, -79523.1705335582, -0.78, -0.28800000000000003, 0.546, 192.0, 0.0, 0.0, 0.0, 0.0, 0.0, 0.0, 0.0, 0.0, 0.0, 1.769680280773609E9, 0.0, 2026-01-29 15:21:20.773
183.0, 72990.87321649471, -105670.30825260977, 65321.810879923214, -167199.98922347894, -128351.8974008438, -84137.17408623388, -85882.68886598217, -79522.79055390247, -0.78, -0.28800000000000003, 0.546, 192.0, 0.0, 0.0, 0.0, 0.0, 0.0, 0.0, 0.0, 0.0, 0.0, 1.769680280773688E9, 0.0, 2026-01-29 15:21:20.773
184.0, 73145.48023289206, -118039.42835800987, -16493.55339927118, -181796.59477431714, -128358.73703464711, -84142.5608566476, -85879.98430490308, -78904.69776447985, -0.78, -0.28800000000000003, 0.546, 192.0, 0.0, 0.0, 0.0, 0.0, 0.0, 0.0, 0.0, 0.0, 0.0, 1.769680280773814E9, 0.0, 2026-01-29 15:21:20.773
185.0, 73217.76577446054, -121170.52777654264, -55217.36952273483, -185192.54001290083, -128361.70981665967, -84147.23237123876, -85879.42551129169, -78180.76946506137, -0.78, -0.28800000000000003, 0.546, 192.0, 0.0, 0.0, 0.0, 0.0, 0.0, 0.0, 0.0, 0.0, 0.0, 1.769680280773909E9, 0.0, 2026-01-29 15:21:20.773
186.0, 73116.64648254472, -111313.69904443015, 34628.976539251395, -173283.3964566465, -128354.35609273388, -84144.23723748175, -85881.1689473592, -78998.01629758076, -0.78, -0.28800000000000003, 0.546, 192.0, 0.0, 0.0, 0.0, 0.0, 0.0, 0.0, 0.0, 0.0, 0.0, 1.769680280774003E9, 0.0, 2026-01-29 15:21:20.774
187.0, 72977.50687331044, -100998.16781260584, 72531.58957142706, -161235.31445685797, -128347.292941486, -84140.72801360226, -85883.96291541612, -79533.54174298546, -0.78, -0.28800000000000003, 0.546, 192.0, 0.0, 0.0, 0.0, 0.0, 0.0, 0.0, 0.0, 0.0, 0.0, 1.769680280774095E9, 0.0, 2026-01-29 15:21:20.774
188.0, 73017.96353077455, -105850.26214721944, 65288.752649873815, -167331.01514947595, -128352.12091828835, -84145.17601074887, -85886.51101428403, -79527.14914407124, -0.786, -0.28800000000000003, 0.54, 192.0, 231.0, 112.0, 247.0, 0.0, 16.0, 224.0, 0.0, 0.0, 0.0, 1.769680280774177E9, 0.0, 2026-01-29 15:21:20.774
189.0, 73176.23623326258, -118117.39124266998, -16172.872921570888, -181789.21869864687, -128363.4979562161, -84155.03313005366, -85888.1203398848, -78808.62996681094, -0.786, -0.28800000000000003, 0.54, 192.0, 0.0, 0.0, 0.0, 0.0, 0.0, 0.0, 0.0, 0.0, 0.0, 1.769680280774267E9, 0.0, 2026-01-29 15:21:20.774
190.0, 73248.81234750895, -121067.75445553714, -52988.31945518487, -184971.9506468714, -128369.3988167523, -84162.49861270173, -85890.73549398608, -78065.59092588317, -0.786, -0.28800000000000003, 0.54, 192.0, 0.0, 0.0, 0.0, 0.0, 0.0, 0.0, 0.0, 0.0, 0.0, 1.769680280774347E9, 0.0, 2026-01-29 15:21:20.774
191.0, 73146.95544802611, -111175.22998752953, 36820.45332437198, -173029.41358440084, -128362.15685154879, -84159.43642371136, -85892.5236335425, -78951.52466911371, -0.786, -0.28800000000000003, 0.54, 192.0, 0.0, 0.0, 0.0, 0.0, 0.0, 0.0, 0.0, 0.0, 0.0, 1.769680280774451E9, 0.0, 2026-01-29 15:21:20.774
192.0, 73008.77696380341, -101063.88194130444, 72652.91484033047, -161248.59139306445, -128354.06552005596, -84154.5637434201, -85894.11060739883, -79549.88086818228, -0.786, -0.28800000000000003, 0.54, 192.0, 0.0, 0.0, 0.0, 0.0, 0.0, 0.0, 0.0, 0.0, 0.0, 1.769680280774543E9, 0.0, 2026-01-29 15:21:20.774
193.0, 73049.3900834787, -106037.43565528818, 65235.01905620326, -167487.25384321855, -128357.26181951306, -84157.15654577692, -85894.98232543259, -79533.02765286299, -0.786, -0.28800000000000003, 0.54, 192.0, 0.0, 0.0, 0.0, 0.0, 0.0, 0.0, 0.0, 0.0, 0.0, 1.76968028077464E9, 0.0, 2026-01-29 15:21:20.774
194.0, 73206.7240126996, -118190.19087436091, -15897.320615925863, -181800.48397785236, -128369.01883709656, -84167.48305171527, -85896.83752022237, -78713.25507322015, -0.786, -0.28800000000000003, 0.54, 192.0, 0.0, 0.0, 0.0, 0.0, 0.0, 0.0, 0.0, 0.0, 0.0, 1.769680280774723E9, 0.0, 2026-01-29 15:21:20.774
195.0, 73273.75689432108, -120952.19593670321, -50617.13464464363, -184752.0541849201, -128371.32106677546, -84171.43931048385, -85896.14461614426, -77952.73696812833, -0.786, -0.28800000000000003, 0.54, 192.0, 0.0, 0.0, 0.0, 0.0, 0.0, 0.0, 0.0, 0.0, 0.0, 1.769680280774814E9, 0.0, 2026-01-29 15:21:20.774
196.0, 73171.74353262705, -111025.20507874551, 38890.11310221113, -172788.05944777245, -128364.5484882055, -84168.89121161595, -85898.44684582316, -78900.76385745572, -0.786, -0.28800000000000003, 0.54, 192.0, 0.0, 0.0, 0.0, 0.0, 0.0, 0.0, 0.0, 0.0, 0.0, 1.769680280833724E9, 0.0, 2026-01-29 15:21:20.833
197.0, 73036.984865306, -101095.88963936444, 72756.62693460309, -161249.28429714256, -128357.61944742435, -84165.29258075864, -85901.35257260235, -79562.59901077735, -0.786, -0.28800000000000003, 0.54, 192.0, 0.0, 0.0, 0.0, 0.0, 0.0, 0.0, 0.0, 0.0, 0.0, 1.769680280833835E9, 0.0, 2026-01-29 15:21:20.833
198.0, 73080.90604316069, -106211.15341319483, 65169.12611354901, -167643.35842649444, -128362.35801724887, -84169.49470871624, -85903.56539530342, -79534.81579241941, -0.784, -0.28800000000000003, 0.546, 192.0, 231.0, 128.0, 247.0, 0.0, 17.0, 16.0, 0.0, 0.0, 0.0, 1.769680280833918E9, 0.0, 2026-01-29 15:21:20.833
199.0, 73234.86485896884, -118296.69693669045, -15758.270413669397, -181843.2205132509, -128371.07519758646, -84176.9154878754, -85902.20193889165, -78599.08236254244, -0.784, -0.28800000000000003, 0.546, 192.0, 0.0, 0.0, 0.0, 0.0, 0.0, 0.0, 0.0, 0.0, 0.0, 1.769680280834057E9, 0.0, 2026-01-29 15:21:20.834
200.0, 73298.38851671082, -120912.36512808385, -48713.01188624047, -184604.44326453726, -128371.7010464312, -84179.1730140654, -85899.96676444612, -77826.56137067812, -0.784, -0.28800000000000003, 0.546, 192.0, 0.0, 0.0, 0.0, 0.0, 0.0, 0.0, 0.0, 0.0, 0.0, 1.769680280834153E9, 0.0, 2026-01-29 15:21:20.834
201.0, 73194.43055324919, -110919.12369956062, 40525.79140970605, -172583.9880208955, -128364.1461568053, -84175.8202523971, -85901.59844179136, -78838.5589526366, -0.784, -0.28800000000000003, 0.546, 192.0, 0.0, 0.0, 0.0, 0.0, 0.0, 0.0, 0.0, 0.0, 0.0, 1.769680280834248E9, 0.0, 2026-01-29 15:21:20.834
202.0, 73059.96245860607, -101108.1160435815, 72836.37795881963, -161224.89854394182, -128356.39010147931, -84171.28284827266, -85903.61009879233, -79569.6845137697, -0.784, -0.28800000000000003, 0.546, 192.0, 0.0, 0.0, 0.0, 0.0, 0.0, 0.0, 0.0, 0.0, 0.0, 1.769680280834345E9, 0.0, 2026-01-29 15:21:20.834
203.0, 73106.81171498439, -106354.20457770879, 65083.04954565162, -167764.88486109793, -128362.82740388245, -84177.04959834214, -85907.34284011637, -79529.16080107223, -0.784, -0.28800000000000003, 0.546, 192.0, 0.0, 0.0, 0.0, 0.0, 0.0, 0.0, 0.0, 0.0, 0.0, 1.76968028083445E9, 0.0, 2026-01-29 15:21:20.834
204.0, 73261.8434145264, -118408.07567931125, -15650.535005394819, -181877.2845718008, -128373.15390982079, -84186.21381356881, -85907.52165407201, -78489.46940773362, -0.784, -0.28800000000000003, 0.546, 192.0, 0.0, 0.0, 0.0, 0.0, 0.0, 0.0, 0.0, 0.0, 0.0, 1.769680280834536E9, 0.0, 2026-01-29 15:21:20.834
205.0, 73324.1600780678, -120888.96285163914, -46782.02233100204, -184459.58160872242, -128374.62912495484, -84189.43246477038, -85906.38171510478, -77718.08835483651, -0.784, -0.28800000000000003, 0.546, 192.0, 0.0, 0.0, 0.0, 0.0, 0.0, 0.0, 0.0, 0.0, 0.0, 1.769680280834644E9, 0.0, 2026-01-29 15:21:20.834
206.0, 73218.32456807191, -110797.97724461285, 42200.38410429766, -172361.23053565391, -128366.56014520647, -84185.58796472407, -85907.38754360528, -78787.3958095784, -0.784, -0.28800000000000003, 0.546, 192.0, 0.0, 0.0, 0.0, 0.0, 0.0, 0.0, 0.0, 0.0, 0.0, 1.769680280834746E9, 0.0, 2026-01-29 15:21:20.834
207.0, 73085.3540403073, -101080.60104615701, 72917.15716328111, -161199.46225875168, -128359.18406953623, -84181.45289199983, -85909.82388375091, -79580.86038599735, -0.784, -0.28800000000000003, 0.546, 192.0, 0.0, 0.0, 0.0, 0.0, 0.0, 0.0, 0.0, 0.0, 0.0, 1.769680280834844E9, 0.0, 2026-01-29 15:21:20.834
208.0, 73133.27618041947, -106438.71652349431, 64984.992442726194, -167889.56289166963, -128365.12963356134, -84186.88436590247, -85913.06488669693, -79523.34934751384, -0.784, -0.28800000000000003, 0.546, 192.0, 231.0, 128.0, 247.0, 0.0, 17.0, 16.0, 0.0, 0.0, 0.0, 1.769680280834943E9, 0.0, 2026-01-29 15:21:20.834
209.0, 73287.68203111674, -118476.60612781122, -15606.546772306774, -181935.06383121776, -128374.96440112167, -84195.44508402886, -85912.64020355228, -78384.39385704922, -0.784, -0.28800000000000003, 0.546, 192.0, 0.0, 0.0, 0.0, 0.0, 0.0, 0.0, 0.0, 0.0, 0.0, 1.769680280835033E9, 0.0, 2026-01-29 15:21:20.835
210.0, 73350.53513652505, -120841.59950513835, -44931.49905580271, -184330.23206355955, -128378.51832849007, -84200.7200957203, -85913.78014251949, -77616.29851058705, -0.784, -0.28800000000000003, 0.546, 192.0, 0.0, 0.0, 0.0, 0.0, 0.0, 0.0, 0.0, 0.0, 0.0, 1.769680280835125E9, 0.0, 2026-01-29 15:21:20.835
211.0, 73241.92801021672, -110656.15542604393, 43634.94141518372, -172140.86468706903, -128369.33176151893, -84195.71330496232, -85913.84719775287, -78740.07716656652, -0.784, -0.28800000000000003, 0.546, 192.0, 0.0, 0.0, 0.0, 0.0, 0.0, 0.0, 0.0, 0.0, 0.0, 1.769680280894046E9, 0.0, 2026-01-29 15:21:20.894
212.0, 73109.73979350804, -101017.41266458186, 72983.8324169913, -161118.8171647569, -128362.13449980432, -84191.60058398254, -85916.41764836523, -79592.46094136965, -0.784, -0.28800000000000003, 0.546, 192.0, 0.0, 0.0, 0.0, 0.0, 0.0, 0.0, 0.0, 0.0, 0.0, 1.769680280894158E9, 0.0, 2026-01-29 15:21:20.894
213.0, 73157.55017489793, -106522.0438268237, 64904.86143885391, -167971.72790428734, -128366.4036829953, -84195.15451135093, -85917.75875303254, -79515.01214683201, -0.784, -0.28800000000000003, 0.546, 192.0, 0.0, 0.0, 0.0, 0.0, 0.0, 0.0, 0.0, 0.0, 0.0, 1.769680280894242E9, 0.0, 2026-01-29 15:21:20.894
214.0, 73312.6489296733, -118580.92171918413, -15547.292297755755, -181986.53989869833, -128377.08781684493, -84204.43048529989, -85917.93756698818, -78289.71186753653, -0.784, -0.28800000000000003, 0.546, 192.0, 0.0, 0.0, 0.0, 0.0, 0.0, 0.0, 0.0, 0.0, 0.0, 1.769680280894372E9, 0.0, 2026-01-29 15:21:20.894
215.0, 73372.05986643552, -120826.82500205339, -43105.94267915996, -184210.471416768, -128378.42892151224, -84207.60443301254, -85917.13290418779, -77528.07617522194, -0.784, -0.28800000000000003, 0.546, 192.0, 0.0, 0.0, 0.0, 0.0, 0.0, 0.0, 0.0, 0.0, 0.0, 1.769680280894494E9, 0.0, 2026-01-29 15:21:20.894
216.0, 73264.83854828341, -110524.57070643554, 45068.58230454711, -171920.09650708397, -128371.96926736466, -84205.48101728929, -85919.97157573362, -78700.46987539172, -0.784, -0.28800000000000003, 0.546, 192.0, 0.0, 0.0, 0.0, 0.0, 0.0, 0.0, 0.0, 0.0, 0.0, 1.769680280894588E9, 0.0, 2026-01-29 15:21:20.894
217.0, 73134.41611938669, -100960.61688192093, 73048.38425497821, -161036.8086143504, -128365.3978544948, -84201.9717934098, -85923.21257867964, -79604.86615954235, -0.784, -0.28800000000000003, 0.546, 192.0, 0.0, 0.0, 0.0, 0.0, 0.0, 0.0, 0.0, 0.0, 0.0, 1.76968028089468E9, 0.0, 2026-01-29 15:21:20.894
218.0, 73184.88635836677, -106621.75495883882, 64839.795510744516, -168060.911364664, -128370.53875571952, -84206.3750870675, -85925.29129091398, -79502.94220482615, -0.786, -0.29, 0.55, 192.0, 231.0, 112.0, 246.0, 240.0, 17.0, 48.0, 0.0, 0.0, 0.0, 1.769680280894762E9, 0.0, 2026-01-29 15:21:20.894
219.0, 73339.85100267542, -118692.14399959374, -15285.843942862028, -182026.79539046233, -128380.68644770223, -84215.06991566061, -85924.7324973026, -78179.27189818287, -0.786, -0.29, 0.55, 192.0, 0.0, 0.0, 0.0, 0.0, 0.0, 0.0, 0.0, 0.0, 0.0, 1.769680280894854E9, 0.0, 2026-01-29 15:21:20.894
220.0, 73397.2726341811, -120804.74147853155, -40827.070573219135, -184077.21031632548, -128381.8487384139, -84218.132104651, -85923.95018624666, -77433.41653745373, -0.786, -0.29, 0.55, 192.0, 0.0, 0.0, 0.0, 0.0, 0.0, 0.0, 0.0, 0.0, 0.0, 1.769680280894936E9, 0.0, 2026-01-29 15:21:20.894
221.0, 73286.40798168279, -110380.55841690999, 46723.05842912894, -171677.0212861325, -128373.69035168772, -84214.26525286022, -85925.29129091398, -78655.85579345892, -0.786, -0.29, 0.55, 192.0, 0.0, 0.0, 0.0, 0.0, 0.0, 0.0, 0.0, 0.0, 0.0, 1.769680280895028E9, 0.0, 2026-01-29 15:21:20.895
222.0, 73157.77369234248, -100910.05723596302, 73112.93609296514, -160969.6416222622, -128368.28122952953, -84211.98537492579, -85929.73928806059, -79615.55029339198, -0.786, -0.29, 0.55, 192.0, 0.0, 0.0, 0.0, 0.0, 0.0, 0.0, 0.0, 0.0, 0.0, 1.769680280895118E9, 0.0, 2026-01-29 15:21:20.895
223.0, 73211.48493426859, -106711.3407506157, 64847.84213874843, -168147.07733953922, -128374.91969763277, -84217.90858720645, -85932.9802910066, -79491.72162910958, -0.786, -0.29, 0.55, 192.0, 0.0, 0.0, 0.0, 0.0, 0.0, 0.0, 0.0, 0.0, 0.0, 1.76968028089521E9, 0.0, 2026-01-29 15:21:20.895
224.0, 73365.84608147694, -118780.90277682577, -14510.640741663068, -182041.50283831393, -128384.88857565983, -84226.64811928847, -85932.3320904174, -78092.83770237419, -0.786, -0.29, 0.55, 192.0, 0.0, 0.0, 0.0, 0.0, 0.0, 0.0, 0.0, 0.0, 0.0, 1.769680280895292E9, 0.0, 2026-01-29 15:21:20.895
225.0, 73424.11707927192, -120775.97478341757, -38049.39693801367, -183902.1067502626, -128388.50955826159, -84232.0795931911, -85934.2319886961, -77363.38852207524, -0.786, -0.29, 0.55, 192.0, 0.0, 0.0, 0.0, 0.0, 0.0, 0.0, 0.0, 0.0, 0.0, 1.769680280895385E9, 0.0, 2026-01-29 15:21:20.895
226.0, 73313.31948200698, -110251.0747612804, 48376.97576009938, -171418.38925104015, -128381.82638666945, -84229.64325304548, -85937.00360500856, -78626.88793264484, -0.786, -0.29, 0.55, 192.0, 0.0, 0.0, 0.0, 0.0, 0.0, 0.0, 0.0, 0.0, 0.0, 1.769680280954447E9, 0.0, 2026-01-29 15:21:20.954
227.0, 73185.10987581132, -100872.68511923375, 73175.65508790674, -160896.50671440444, -128375.61260171088, -84226.46930533282, -85940.57988412141, -79631.1965145107, -0.786, -0.29, 0.55, 192.0, 0.0, 0.0, 0.0, 0.0, 0.0, 0.0, 0.0, 0.0, 0.0, 1.769680280954561E9, 0.0, 2026-01-29 15:21:20.954
228.0, 73237.54706830348, -106800.36774878118, 64866.774066302074, -168228.52709633435, -128379.27828780154, -84229.3303286231, -85940.7363463326, -79475.58366961285, -0.776, -0.29, 0.548, 192.0, 231.0, 192.0, 246.0, 240.0, 17.0, 32.0, 0.0, 0.0, 0.0, 1.769680280954645E9, 0.0, 2026-01-29 15:21:20.954
229.0, 73392.69052656776, -118874.22130992668, -13630.943135135549, -182067.16264094863, -128390.02947688455, -84238.69570954988, -85940.84810505487, -78001.4637710409, -0.776, -0.29, 0.548, 192.0, 0.0, 0.0, 0.0, 0.0, 0.0, 0.0, 0.0, 0.0, 0.0, 1.769680280954782E9, 0.0, 2026-01-29 15:21:20.954
230.0, 73447.67581792783, -120775.99713516202, -35228.71854647619, -183751.00895774472, -128391.7505612076, -84242.07082296263, -85941.02691901052, -77288.66664036115, -0.776, -0.29, 0.548, 192.0, 0.0, 0.0, 0.0, 0.0, 0.0, 0.0, 0.0, 0.0, 0.0, 1.769680280954875E9, 0.0, 2026-01-29 15:21:20.954
231.0, 73333.48075550566, -110182.4102023137, 49836.52232128648, -171203.05254495773, -128382.98867738113, -84237.39930837147, -85941.71982308863, -78591.34865896091, -0.776, -0.29, 0.548, 192.0, 0.0, 0.0, 0.0, 0.0, 0.0, 0.0, 0.0, 0.0, 0.0, 1.769680280954968E9, 0.0, 2026-01-29 15:21:20.954
232.0, 73206.85812316634, -100884.41978507278, 73223.82309720792, -160844.62831552367, -128377.26663080057, -84234.51593333673, -85945.74313709058, -79640.47248845965, -0.776, -0.29, 0.548, 192.0, 0.0, 0.0, 0.0, 0.0, 0.0, 0.0, 0.0, 0.0, 0.0, 1.769680280955067E9, 0.0, 2026-01-29 15:21:20.955
233.0, 73262.67042907125, -106931.34897128928, 64813.5992662429, -168344.55500180187, -128382.6981047032, -84239.07568920561, -85947.4865731581, -79453.65660830219, -0.776, -0.29, 0.548, 192.0, 0.0, 0.0, 0.0, 0.0, 0.0, 0.0, 0.0, 0.0, 0.0, 1.769680280955154E9, 0.0, 2026-01-29 15:21:20.955
234.0, 73417.21039023524, -118975.16178788684, -13052.547043865568, -182100.1314640202, -128393.0022588971, -84248.15049745447, -85947.19600048018, -77911.25213041928, -0.776, -0.29, 0.548, 192.0, 0.0, 0.0, 0.0, 0.0, 0.0, 0.0, 0.0, 0.0, 0.0, 1.769680280955241E9, 0.0, 2026-01-29 15:21:20.955
235.0, 73470.02756238313, -120731.2489427625, -32604.847264867698, -183600.35820011597, -128394.49982577561, -84251.57031435613, -85947.24070396909, -77223.48895352948, -0.776, -0.29, 0.548, 192.0, 0.0, 0.0, 0.0, 0.0, 0.0, 0.0, 0.0, 0.0, 0.0, 1.769680280955329E9, 0.0, 2026-01-29 15:21:20.955
236.0, 73355.43016856076, -110028.58549697227, 51286.14470793542, -170961.54194611812, -128386.94493614972, -84248.32931141011, -85949.14060224779, -78562.58196384693, -0.776, -0.29, 0.548, 192.0, 0.0, 0.0, 0.0, 0.0, 0.0, 0.0, 0.0, 0.0, 0.0, 1.769680280955442E9, 0.0, 2026-01-29 15:21:20.955
237.0, 73229.54514378848, -100837.3470112499, 73270.65000184179, -160795.34271899972, -128380.90996514678, -84245.31182590865, -85952.9851022941, -79652.16245080977, -0.776, -0.29, 0.548, 192.0, 0.0, 0.0, 0.0, 0.0, 0.0, 0.0, 0.0, 0.0, 0.0, 1.76968028095554E9, 0.0, 2026-01-29 15:21:20.955
238.0, 73286.58679563842, -107042.83947263235, 64630.6055343873, -168467.86957596178, -128385.89440416032, -84249.44689863287, -85953.92387556123, -79432.1989336251, -0.776, -0.28800000000000003, 0.546, 192.0, 231.0, 192.0, 247.0, 0.0, 17.0, 16.0, 0.0, 0.0, 0.0, 1.769680280955639E9, 0.0, 2026-01-29 15:21:20.955
239.0, 73439.18215503481, -119096.86703644598, -13134.600297761, -182169.0418921759, -128394.07514263096, -84256.55475336967, -85951.44283192669, -77827.03075731167, -0.776, -0.28800000000000003, 0.546, 192.0, 0.0, 0.0, 0.0, 0.0, 0.0, 0.0, 0.0, 0.0, 0.0, 1.769680280955735E9, 0.0, 2026-01-29 15:21:20.955
240.0, 73493.22867312774, -120725.81746885985, -30891.742514579597, -183491.6616668298, -128398.54549152202, -84263.10381449507, -85954.79559359499, -77164.92738305657, -0.776, -0.28800000000000003, 0.546, 192.0, 0.0, 0.0, 0.0, 0.0, 0.0, 0.0, 0.0, 0.0, 0.0, 1.769680280955833E9, 0.0, 2026-01-29 15:21:20.955
241.0, 73378.20659616073, -109898.5877512202, 52313.721455779254, -170741.4890219556, -128392.1528926078, -84261.13686098301, -85958.01424479655, -78541.4372135922, -0.776, -0.28800000000000003, 0.546, 192.0, 0.0, 0.0, 0.0, 0.0, 0.0, 0.0, 0.0, 0.0, 0.0, 1.769680281014716E9, 0.0, 2026-01-29 15:21:21.014
242.0, 73252.05335045497, -100800.93601953221, 73309.78790638303, -160741.72088405144, -128384.93327914874, -84256.66651209194, -85960.49528843109, -79664.299448049, -0.776, -0.28800000000000003, 0.546, 192.0, 0.0, 0.0, 0.0, 0.0, 0.0, 0.0, 0.0, 0.0, 0.0, 1.769680281014833E9, 0.0, 2026-01-29 15:21:21.014
243.0, 73313.34183375143, -107157.74979087709, 64462.632174805665, -168579.27067032704, -128392.19759609671, -84263.10381449507, -85963.64688439929, -79408.81900892485, -0.776, -0.28800000000000003, 0.546, 192.0, 0.0, 0.0, 0.0, 0.0, 0.0, 0.0, 0.0, 0.0, 0.0, 1.769680281014921E9, 0.0, 2026-01-29 15:21:21.014
244.0, 73466.69715245928, -119219.86868618354, -13106.526506725135, -182243.1602767897, -128401.11594213438, -84270.7928145877, -85962.10461403186, -77748.30791334009, -0.776, -0.28800000000000003, 0.546, 192.0, 0.0, 0.0, 0.0, 0.0, 0.0, 0.0, 0.0, 0.0, 0.0, 1.769680281015054E9, 0.0, 2026-01-29 15:21:21.015
245.0, 73516.09450770552, -120716.742660611, -28859.99129533664, -183371.72220608263, -128402.43469505725, -84274.16792800045, -85962.41753845425, -77109.47270506296, -0.776, -0.28800000000000003, 0.546, 192.0, 0.0, 0.0, 0.0, 0.0, 0.0, 0.0, 0.0, 0.0, 0.0, 1.769680281015157E9, 0.0, 2026-01-29 15:21:21.015
246.0, 73396.64678533636, -109778.24595907282, 53396.03762579413, -170539.76452824648, -128393.27047983056, -84269.29524770919, -85962.75281462107, -78521.23123660461, -0.776, -0.28800000000000003, 0.546, 192.0, 0.0, 0.0, 0.0, 0.0, 0.0, 0.0, 0.0, 0.0, 0.0, 1.769680281015251E9, 0.0, 2026-01-29 15:21:21.015
247.0, 73273.28750768752, -100768.45893483865, 73345.52834576707, -160697.3303195632, -128387.68254371674, -84266.43422441892, -85966.73142513412, -79675.6541342323, -0.776, -0.28800000000000003, 0.546, 192.0, 0.0, 0.0, 0.0, 0.0, 0.0, 0.0, 0.0, 0.0, 0.0, 1.769680281015343E9, 0.0, 2026-01-29 15:21:21.015
248.0, 73332.67609270527, -107264.83699856246, 64426.57881099926, -168681.73106691017, -128391.3035263185, -84269.25054422028, -85965.97146582264, -79378.487691699, -0.778, -0.28600000000000003, 0.548, 192.0, 231.0, 176.0, 247.0, 16.0, 17.0, 32.0, 0.0, 0.0, 0.0, 1.769680281015441E9, 0.0, 2026-01-29 15:21:21.015
249.0, 73487.41721956935, -119306.6605099035, -12408.772100063814, -182260.01349210902, -128401.47357004567, -84278.28064898022, -85965.792651867, -77670.27797344662, -0.778, -0.28600000000000003, 0.548, 192.0, 0.0, 0.0, 0.0, 0.0, 0.0, 0.0, 0.0, 0.0, 0.0, 1.769680281015532E9, 0.0, 2026-01-29 15:21:21.015
250.0, 73535.1605457259, -120662.80790124035, -26308.11498261869, -183218.23277690803, -128402.74761947962, -84281.63341064852, -85966.28439024501, -77054.934448592, -0.778, -0.28600000000000003, 0.548, 192.0, 0.0, 0.0, 0.0, 0.0, 0.0, 0.0, 0.0, 0.0, 0.0, 1.769680281015614E9, 0.0, 2026-01-29 15:21:21.015
251.0, 73416.0257477791, -109646.75064644226, 54651.46805661536, -170338.44236593752, -128395.12567462036, -84278.1912420024, -85968.18428852371, -78496.39844851475, -0.778, -0.28600000000000003, 0.548, 192.0, 0.0, 0.0, 0.0, 0.0, 0.0, 0.0, 0.0, 0.0, 0.0, 1.769680281015708E9, 0.0, 2026-01-29 15:21:21.015
252.0, 73293.47113293066, -100757.59598703338, 73379.72651478369, -160698.44790678596, -128388.91188966179, -84274.70436986738, -85971.60410542537, -79683.38783781385, -0.778, -0.28600000000000003, 0.548, 192.0, 0.0, 0.0, 0.0, 0.0, 0.0, 0.0, 0.0, 0.0, 0.0, 1.7696802810158E9, 0.0, 2026-01-29 15:21:21.015
253.0, 73355.98896217215, -107370.02430796914, 64416.140546338625, -168801.71523114626, -128394.72334322016, -84279.53234666972, -85972.9452100927, -79351.35267393025, -0.778, -0.28600000000000003, 0.548, 192.0, 0.0, 0.0, 0.0, 0.0, 0.0, 0.0, 0.0, 0.0, 0.0, 1.769680281015891E9, 0.0, 2026-01-29 15:21:21.015
254.0, 73510.84184775852, -119371.10058916816, -11373.171075960527, -182259.16412581972, -128406.10038114792, -84289.68003865243, -85973.9957420821, -77611.17996110678, -0.778, -0.28600000000000003, 0.548, 192.0, 0.0, 0.0, 0.0, 0.0, 0.0, 0.0, 0.0, 0.0, 0.0, 1.769680281015972E9, 0.0, 2026-01-29 15:21:21.015
255.0, 73556.03707504715, -120616.29392102885, -23522.506478131592, -183044.62677772366, -128406.77093348157, -84292.36224798707, -85973.9957420821, -77025.65366335555, -0.778, -0.28600000000000003, 0.548, 192.0, 0.0, 0.0, 0.0, 0.0, 0.0, 0.0, 0.0, 0.0, 0.0, 1.769680281016063E9, 0.0, 2026-01-29 15:21:21.016
0.0, 73436.29878000007, -109511.41083376537, 55856.00356531186, -170095.61301417506, -128399.77483746706, -84289.70239039688, -85976.58854443891, -78492.59865195736, -0.778, -0.28600000000000003, 0.548, 192.0, 0.0, 0.0, 0.0, 0.0, 0.0, 0.0, 0.0, 0.0, 0.0, 1.769680281074966E9, 0.0, 2026-01-29 15:21:21.074
1.0, 73314.9064558633, -100727.3764285298, 73412.24830296615, -160653.05151379723, -128393.76221820859, -84286.21551826186, -85979.98600959612, -79697.5588437985, -0.778, -0.28600000000000003, 0.548, 192.0, 0.0, 0.0, 0.0, 0.0, 0.0, 0.0, 0.0, 0.0, 0.0, 1.769680281075143E9, 0.0, 2026-01-29 15:21:21.075
2.0, 73377.58074731598, -107480.1737046449, 64303.934789172985, -168909.361232443, -128398.03140139955, -84289.59063167461, -85979.53897470701, -79330.05146146435, -0.788, -0.28400000000000003, 0.55, 192.0, 231.0, 96.0, 247.0, 32.0, 17.0, 48.0, 0.0, 0.0, 0.0, 1.769680281075231E9, 0.0, 2026-01-29 15:21:21.075
3.0, 73531.29369393512, -119474.23153808493, -11014.98437106423, -182309.12027467732, -128408.71553524918, -84299.2465852793, -85980.03071308503, -77562.27434423857, -0.788, -0.28400000000000003, 0.55, 192.0, 0.0, 0.0, 0.0, 0.0, 0.0, 0.0, 0.0, 0.0, 0.0, 1.769680281075373E9, 0.0, 2026-01-29 15:21:21.075
4.0, 73573.42673223338, -120573.89266179713, -21191.10777272079, -182897.95463060794, -128408.38025908236, -84301.03472483573, -85979.15899505127, -77007.77226779131, -0.788, -0.28400000000000003, 0.55, 192.0, 0.0, 0.0, 0.0, 0.0, 0.0, 0.0, 0.0, 0.0, 0.0, 1.769680281075492E9, 0.0, 2026-01-29 15:21:21.075
5.0, 73451.65442844086, -109356.89322434584, 56958.68217452552, -169860.07033110503, -128401.8088462125, -84298.75484690128, -85982.13177706383, -78506.63554747529, -0.788, -0.28400000000000003, 0.55, 192.0, 0.0, 0.0, 0.0, 0.0, 0.0, 0.0, 0.0, 0.0, 0.0, 1.769680281075583E9, 0.0, 2026-01-29 15:21:21.075
6.0, 73332.96666538318, -100674.9615877821, 73439.69624515728, -160591.29364386722, -128397.67377348826, -84297.32433525614, -85987.36208526637, -79715.90962599631, -0.788, -0.28400000000000003, 0.55, 192.0, 0.0, 0.0, 0.0, 0.0, 0.0, 0.0, 0.0, 0.0, 0.0, 1.769680281075674E9, 0.0, 2026-01-29 15:21:21.075
7.0, 73398.2784626816, -107584.01990938425, 64166.2480433283, -169021.36582390856, -128403.060543902, -84301.70527716939, -85987.92087887775, -79325.51405733993, -0.788, -0.28400000000000003, 0.55, 192.0, 0.0, 0.0, 0.0, 0.0, 0.0, 0.0, 0.0, 0.0, 0.0, 1.769680281075754E9, 0.0, 2026-01-29 15:21:21.075
8.0, 73549.15273775492, -119573.2721177664, -10831.52125257507, -182361.6468741473, -128411.17422713927, -84308.7013731839, -85985.97627711014, -77546.29284695302, -0.788, -0.28400000000000003, 0.55, 192.0, 0.0, 0.0, 0.0, 0.0, 0.0, 0.0, 0.0, 0.0, 0.0, 1.769680281075835E9, 0.0, 2026-01-29 15:21:21.075
9.0, 73590.5705202306, -120531.2008298875, -19145.476120171086, -182775.2435535483, -128412.02359342857, -84311.76356217428, -85986.55742246598, -77019.46223014143, -0.788, -0.28400000000000003, 0.55, 192.0, 0.0, 0.0, 0.0, 0.0, 0.0, 0.0, 0.0, 0.0, 0.0, 1.769680281075916E9, 0.0, 2026-01-29 15:21:21.075
10.0, 73464.90901290286, -109188.38342289728, 57952.86541615313, -169632.50722080556, -128403.21700611318, -84307.22615804985, -85987.42914049973, -78537.14567865679, -0.788, -0.28400000000000003, 0.55, 192.0, 0.0, 0.0, 0.0, 0.0, 0.0, 0.0, 0.0, 0.0, 0.0, 1.769680281076018E9, 0.0, 2026-01-29 15:21:21.076
11.0, 73343.02495038808, -100618.54578477691, 73456.30359128756, -160534.02847457273, -128394.81275019799, -84301.21353879137, -85988.25615504458, -79731.15351571483, -0.788, -0.28400000000000003, 0.55, 192.0, 0.0, 0.0, 0.0, 0.0, 0.0, 0.0, 0.0, 0.0, 0.0, 1.76968028107611E9, 0.0, 2026-01-29 15:21:21.076
12.0, 73411.60010237695, -107707.51329749981, 63958.48857861621, -169141.52880210028, -128401.65238400131, -84307.06969583865, -85989.93253587873, -79321.93777822707, -0.782, -0.28400000000000003, 0.548, 192.0, 231.0, 144.0, 247.0, 32.0, 17.0, 32.0, 0.0, 0.0, 0.0, 1.769680281076201E9, 0.0, 2026-01-29 15:21:21.076
13.0, 73565.69302865185, -119700.87822686175, -10815.159775633785, -182415.33576432895, -128412.71649750668, -84317.21738782137, -85990.93836437921, -77535.74282357012, -0.782, -0.28400000000000003, 0.548, 192.0, 0.0, 0.0, 0.0, 0.0, 0.0, 0.0, 0.0, 0.0, 0.0, 1.769680281076292E9, 0.0, 2026-01-29 15:21:21.076
14.0, 73605.70265122683, -120517.49921053639, -17259.36886779891, -182641.4683629833, -128414.2587678741, -84320.97248088986, -85992.36887602435, -77036.82953558321, -0.782, -0.28400000000000003, 0.548, 192.0, 0.0, 0.0, 0.0, 0.0, 0.0, 0.0, 0.0, 0.0, 0.0, 1.769680281076386E9, 0.0, 2026-01-29 15:21:21.076
15.0, 73478.9906119097, -109049.10970319626, 58834.06058955915, -169399.2891191589, -128406.0109741701, -84316.97151863236, -85993.91114639178, -78572.05910349598, -0.782, -0.28400000000000003, 0.548, 192.0, 0.0, 0.0, 0.0, 0.0, 0.0, 0.0, 0.0, 0.0, 0.0, 1.769680281135267E9, 0.0, 2026-01-29 15:21:21.135
16.0, 73360.4146075743, -100568.00849056346, 73478.58828050952, -160490.5319798627, -128399.52896827806, -84312.99290811931, -85996.48159700414, -79753.41585319232, -0.782, -0.28400000000000003, 0.548, 192.0, 0.0, 0.0, 0.0, 0.0, 0.0, 0.0, 0.0, 0.0, 0.0, 1.769680281135381E9, 0.0, 2026-01-29 15:21:21.135
17.0, 73431.89548634237, -107810.08545280523, 63801.82520172897, -169262.22822215894, -128406.79328522603, -84319.16198958897, -85998.56030923847, -79318.67442353659, -0.782, -0.28400000000000003, 0.548, 192.0, 0.0, 0.0, 0.0, 0.0, 0.0, 0.0, 0.0, 0.0, 0.0, 1.769680281135494E9, 0.0, 2026-01-29 15:21:21.135
18.0, 73583.55207247163, -119814.53684741698, -10683.329186836385, -182482.03336978357, -128415.15283765232, -84326.44865828141, -85996.86157665987, -77519.29193965101, -0.782, -0.28400000000000003, 0.548, 192.0, 0.0, 0.0, 0.0, 0.0, 0.0, 0.0, 0.0, 0.0, 0.0, 1.769680281135727E9, 0.0, 2026-01-29 15:21:21.135
19.0, 73622.30999735714, -120495.97448062594, -15373.172208448912, -182525.82043717153, -128416.73981150864, -84330.33786181663, -85998.47090226065, -77041.23282924091, -0.782, -0.28400000000000003, 0.548, 192.0, 0.0, 0.0, 0.0, 0.0, 0.0, 0.0, 0.0, 0.0, 0.0, 1.769680281135876E9, 0.0, 2026-01-29 15:21:21.135
20.0, 73494.86035047297, -108914.14987017511, 59652.20149185676, -169209.90278838907, -128409.14021839383, -84327.02980363726, -86000.66137321727, -78594.67906888474, -0.782, -0.28400000000000003, 0.548, 192.0, 0.0, 0.0, 0.0, 0.0, 0.0, 0.0, 0.0, 0.0, 0.0, 1.76968028113606E9, 0.0, 2026-01-29 15:21:21.136
21.0, 73377.78191301608, -100530.81518778982, 73499.77773425315, -160459.64186902545, -128402.97113692417, -84323.23000707985, -86003.4553412742, -79771.38665573439, -0.782, -0.28400000000000003, 0.548, 192.0, 0.0, 0.0, 0.0, 0.0, 0.0, 0.0, 0.0, 0.0, 0.0, 1.76968028113621E9, 0.0, 2026-01-29 15:21:21.136
22.0, 73452.81671915254, -107910.78006157638, 63712.66409309675, -169368.44371181057, -128412.04594517303, -84331.20957985039, -86007.14337910931, -79312.41593508911, -0.78, -0.28600000000000003, 0.554, 192.0, 231.0, 160.0, 247.0, 16.0, 17.0, 80.0, 0.0, 0.0, 0.0, 1.769680281136424E9, 0.0, 2026-01-29 15:21:21.136
23.0, 73604.6744709819, -119902.46861010416, -10248.386591480565, -182523.31704179253, -128420.47255283268, -84338.652710754, -86005.62346048636, -77498.3930585853, -0.78, -0.28600000000000003, 0.554, 192.0, 0.0, 0.0, 0.0, 0.0, 0.0, 0.0, 0.0, 0.0, 0.0, 1.769680281136602E9, 0.0, 2026-01-29 15:21:21.136
24.0, 73640.86194525503, -120443.53728813378, -13142.915146698375, -182390.59238321692, -128420.8078289995, -84341.26786485528, -86006.13755060882, -77041.47869842991, -0.78, -0.28600000000000003, 0.554, 192.0, 0.0, 0.0, 0.0, 0.0, 0.0, 0.0, 0.0, 0.0, 0.0, 1.769680281136752E9, 0.0, 2026-01-29 15:21:21.136
25.0, 73509.27722564664, -108756.65947874302, 60565.02438366704, -168992.86734972804, -128410.41426782779, -84335.16583861898, -86005.57875699745, -78613.54394120502, -0.78, -0.28600000000000003, 0.554, 192.0, 0.0, 0.0, 0.0, 0.0, 0.0, 0.0, 0.0, 0.0, 0.0, 1.769680281136921E9, 0.0, 2026-01-29 15:21:21.136
26.0, 73393.04815447905, -100465.54809398032, 73518.03910947313, -160399.1580485294, -128403.73109623566, -84331.03076589474, -86007.85863493188, -79786.831711153, -0.78, -0.28600000000000003, 0.554, 192.0, 0.0, 0.0, 0.0, 0.0, 0.0, 0.0, 0.0, 0.0, 0.0, 1.769680281137085E9, 0.0, 2026-01-29 15:21:21.137
27.0, 73468.95467864927, -107986.12779213522, 63643.12781609629, -169465.763207169, -128412.02359342857, -84338.406841565, -86010.71965822217, -79300.1671791276, -0.78, -0.28600000000000003, 0.554, 192.0, 0.0, 0.0, 0.0, 0.0, 0.0, 0.0, 0.0, 0.0, 0.0, 1.769680281137252E9, 0.0, 2026-01-29 15:21:21.137
28.0, 73623.91932295791, -119961.29840151053, -9516.992809414007, -182547.61338801545, -128423.93707322325, -84349.20273413691, -86012.75366696759, -77479.52818626502, -0.78, -0.28600000000000003, 0.554, 192.0, 0.0, 0.0, 0.0, 0.0, 0.0, 0.0, 0.0, 0.0, 0.0, 1.769680281137412E9, 0.0, 2026-01-29 15:21:21.137
29.0, 73658.54217511919, -120356.34313301364, -10652.439075999151, -182227.98344230457, -128425.34523312394, -84352.82371673867, -86014.31828907947, -77055.71675964794, -0.78, -0.28600000000000003, 0.554, 192.0, 0.0, 0.0, 0.0, 0.0, 0.0, 0.0, 0.0, 0.0, 0.0, 1.769680281137583E9, 0.0, 2026-01-29 15:21:21.137
30.0, 73526.73393806625, -108564.09920026055, 61525.188270233666, -168732.78245124608, -128416.44923883073, -84348.3086643587, -86015.43587630223, -78648.34560732194, -0.78, -0.28600000000000003, 0.554, 192.0, 0.0, 0.0, 0.0, 0.0, 0.0, 0.0, 0.0, 0.0, 0.0, 1.769680281195334E9, 0.0, 2026-01-29 15:21:21.195
31.0, 73411.48834365468, -100425.38200919415, 73539.16150798339, -160345.22328915875, -128409.45314281622, -84343.7042050009, -86017.15696062529, -79809.29521433059, -0.78, -0.28600000000000003, 0.554, 192.0, 0.0, 0.0, 0.0, 0.0, 0.0, 0.0, 0.0, 0.0, 0.0, 1.769680281195555E9, 0.0, 2026-01-29 15:21:21.195
32.0, 73486.29963234659, -108097.46183126711, 63636.39994101524, -169558.29942921395, -128414.86226497439, -84348.1074986586, -86016.91109143628, -79300.79302797235, -0.78, -0.28, 0.554, 192.0, 231.0, 160.0, 247.0, 64.0, 17.0, 80.0, 0.0, 0.0, 0.0, 1.76968028119572E9, 0.0, 2026-01-29 15:21:21.195
33.0, 73638.51501208723, -120033.3827773789, -8480.38595681023, -182560.35388235498, -128424.29470113454, -84356.5117545738, -86016.59816701392, -77475.75074145207, -0.78, -0.28, 0.554, 192.0, 0.0, 0.0, 0.0, 0.0, 0.0, 0.0, 0.0, 0.0, 0.0, 1.769680281195943E9, 0.0, 2026-01-29 15:21:21.195
34.0, 73670.43330316941, -120276.70386751938, -7830.732504216731, -182060.36771063422, -128424.69703253474, -84359.2610191418, -86017.29107109203, -77078.51553899236, -0.78, -0.28, 0.554, 192.0, 0.0, 0.0, 0.0, 0.0, 0.0, 0.0, 0.0, 0.0, 0.0, 1.769680281196092E9, 0.0, 2026-01-29 15:21:21.196
35.0, 73537.99921727172, -108388.83917198649, 62485.039232377916, -168496.5245123535, -128416.60570104192, -84355.43887083995, -86019.19096937073, -78688.1764159413, -0.78, -0.28, 0.554, 192.0, 0.0, 0.0, 0.0, 0.0, 0.0, 0.0, 0.0, 0.0, 0.0, 1.769680281196267E9, 0.0, 2026-01-29 15:21:21.196
36.0, 73425.74875661716, -100373.3918515911, 73554.9641913133, -160291.333233277, -128411.01776492808, -84352.19786789392, -86022.32021359447, -79828.74123200671, -0.78, -0.28, 0.554, 192.0, 0.0, 0.0, 0.0, 0.0, 0.0, 0.0, 0.0, 0.0, 0.0, 1.769680281196458E9, 0.0, 2026-01-29 15:21:21.196
37.0, 73503.51047557718, -108179.49273341808, 63723.99642753559, -169636.6869970187, -128417.79034349804, -84357.9646179634, -86023.39309732833, -79303.67640300708, -0.78, -0.28, 0.554, 192.0, 0.0, 0.0, 0.0, 0.0, 0.0, 0.0, 0.0, 0.0, 0.0, 1.769680281196631E9, 0.0, 2026-01-29 15:21:21.196
38.0, 73656.35170416257, -120077.2369000002, -7066.25814035632, -182548.66392000485, -128428.51918083659, -84367.66527505699, -86024.48833280664, -77485.96548866815, -0.78, -0.28, 0.554, 192.0, 0.0, 0.0, 0.0, 0.0, 0.0, 0.0, 0.0, 0.0, 0.0, 1.769680281196776E9, 0.0, 2026-01-29 15:21:21.196
39.0, 73686.97359406634, -120178.98204076076, -4694.782757137151, -181868.70150192996, -128429.74852678164, -84371.19685068094, -86026.23176887415, -77116.84878073321, -0.78, -0.28, 0.554, 192.0, 0.0, 0.0, 0.0, 0.0, 0.0, 0.0, 0.0, 0.0, 0.0, 1.769680281196914E9, 0.0, 2026-01-29 15:21:21.196
40.0, 73552.17022325638, -108234.43332128922, 63464.85030232076, -168268.8719950762, -128420.65136678833, -84366.4135773675, -86027.12583865236, -78736.50088745367, -0.78, -0.28, 0.554, 192.0, 0.0, 0.0, 0.0, 0.0, 0.0, 0.0, 0.0, 0.0, 0.0, 1.769680281197069E9, 0.0, 2026-01-29 15:21:21.197
41.0, 73440.34444574648, -100370.32966260072, 73570.69981940983, -160259.81727359502, -128414.03525042954, -84361.94322847643, -86029.0033851866, -79851.31649390656, -0.78, -0.28, 0.554, 192.0, 0.0, 0.0, 0.0, 0.0, 0.0, 0.0, 0.0, 0.0, 0.0, 1.769680281197226E9, 0.0, 2026-01-29 15:21:21.197
42.0, 73519.89430426291, -108316.88890658485, 63748.158663291775, -169744.37770180436, -128420.98664295515, -84367.79938552373, -86030.09862066491, -79315.88045547968, -0.776, -0.28600000000000003, 0.554, 192.0, 231.0, 192.0, 247.0, 16.0, 17.0, 80.0, 0.0, 0.0, 0.0, 1.769680281197381E9, 0.0, 2026-01-29 15:21:21.197
43.0, 73671.64029737, -120163.46993010878, -6009.802938676231, -182554.09539390748, -128431.0672797045, -84376.9188972615, -86030.56800729848, -77503.71277376566, -0.776, -0.28600000000000003, 0.554, 192.0, 0.0, 0.0, 0.0, 0.0, 0.0, 0.0, 0.0, 0.0, 0.0, 1.769680281197548E9, 0.0, 2026-01-29 15:21:21.197
44.0, 73701.70339366239, -120119.36993829846, -2191.119157209296, -181712.66397388745, -128433.88359950586, -84382.08215023066, -86033.96547245569, -77162.49104291094, -0.776, -0.28600000000000003, 0.554, 192.0, 0.0, 0.0, 0.0, 0.0, 0.0, 0.0, 0.0, 0.0, 0.0, 1.769680281197704E9, 0.0, 2026-01-29 15:21:21.197
45.0, 73566.14006354095, -108084.31900552739, 64259.901852596035, -168041.15242256553, -128425.18877091275, -84377.54474610624, -86035.4630393342, -78789.54157704611, -0.776, -0.28600000000000003, 0.554, 192.0, 0.0, 0.0, 0.0, 0.0, 0.0, 0.0, 0.0, 0.0, 0.0, 1.769680281255701E9, 0.0, 2026-01-29 15:21:21.255
46.0, 73457.95762037726, -100365.90401719857, 73588.60356671854, -160216.32077888498, -128420.65136678833, -84375.04135072725, -86039.19578065822, -79878.13858725294, -0.776, -0.28600000000000003, 0.554, 192.0, 0.0, 0.0, 0.0, 0.0, 0.0, 0.0, 0.0, 0.0, 0.0, 1.769680281255819E9, 0.0, 2026-01-29 15:21:21.255
47.0, 73540.90494405091, -108471.0041846042, 63635.72938868158, -169844.26764777515, -128429.12267793689, -84382.43977814195, -86041.72152778167, -79332.21958067651, -0.776, -0.28600000000000003, 0.554, 192.0, 0.0, 0.0, 0.0, 0.0, 0.0, 0.0, 0.0, 0.0, 0.0, 1.769680281255907E9, 0.0, 2026-01-29 15:21:21.255
48.0, 73690.66163190146, -120290.98663222631, -5588.360796971417, -182590.64049609192, -128437.34811989643, -84389.81585381221, -86040.3580713699, -77523.15879144178, -0.776, -0.28600000000000003, 0.554, 192.0, 0.0, 0.0, 0.0, 0.0, 0.0, 0.0, 0.0, 0.0, 0.0, 1.769680281255994E9, 0.0, 2026-01-29 15:21:21.255
49.0, 73716.70141419189, -120094.17952229733, -292.8972593423438, -181576.27362922116, -128437.72809955217, -84392.56511838021, -86041.34154812593, -77202.81358990831, -0.776, -0.28600000000000003, 0.554, 192.0, 0.0, 0.0, 0.0, 0.0, 0.0, 0.0, 0.0, 0.0, 0.0, 1.769680281256126E9, 0.0, 2026-01-29 15:21:21.256
50.0, 73582.1662643154, -107954.65653594215, 64872.227891949165, -167824.8098879826, -128431.38020412686, -84390.50875789032, -86045.20839991671, -78838.60365612552, -0.776, -0.28600000000000003, 0.554, 192.0, 0.0, 0.0, 0.0, 0.0, 0.0, 0.0, 0.0, 0.0, 0.0, 1.769680281256246E9, 0.0, 2026-01-29 15:21:21.256
51.0, 73476.42016129734, -100369.86027596716, 73607.33432857208, -160188.40345006032, -128427.55805582501, -84388.94413577845, -86049.76815578558, -79903.5078172097, -0.776, -0.28600000000000003, 0.554, 192.0, 0.0, 0.0, 0.0, 0.0, 0.0, 0.0, 0.0, 0.0, 0.0, 1.769680281256333E9, 0.0, 2026-01-29 15:21:21.256
52.0, 73557.66875239239, -108625.5888492571, 63434.45192986154, -169956.56281191861, -128432.34132913845, -84392.56511838021, -86048.42705111827, -79340.82500229181, -0.784, -0.28, 0.552, 192.0, 231.0, 128.0, 247.0, 64.0, 17.0, 64.0, 0.0, 0.0, 0.0, 1.769680281256491E9, 0.0, 2026-01-29 15:21:21.256
53.0, 73708.09599257661, -120418.14570643255, -5533.263746889084, -182630.7618773892, -128441.48319262067, -84400.83526382867, -86048.09177495143, -77534.66993983627, -0.784, -0.28, 0.552, 192.0, 0.0, 0.0, 0.0, 0.0, 0.0, 0.0, 0.0, 0.0, 0.0, 1.769680281256619E9, 0.0, 2026-01-29 15:21:21.256
54.0, 73732.9511324109, -120059.04258001359, 1414.5972030874734, -181430.49555188365, -128442.62313158788, -84404.29978421924, -86049.99167323014, -77240.45392757106, -0.784, -0.28, 0.552, 192.0, 0.0, 0.0, 0.0, 0.0, 0.0, 0.0, 0.0, 0.0, 0.0, 1.769680281256706E9, 0.0, 2026-01-29 15:21:21.256
55.0, 73593.5656539876, -107822.49067097792, 65423.958352083966, -167629.29917923204, -128432.7213087942, -84398.66714461651, -86050.50576335262, -78886.1681683264, -0.784, -0.28, 0.552, 192.0, 0.0, 0.0, 0.0, 0.0, 0.0, 0.0, 0.0, 0.0, 0.0, 1.769680281256806E9, 0.0, 2026-01-29 15:21:21.256
56.0, 73488.42304806985, -100368.00508117737, 73619.4266223224, -160191.68915649524, -128428.07214594749, -84396.05199051523, -86053.90322850982, -79923.37851803047, -0.784, -0.28, 0.552, 192.0, 0.0, 0.0, 0.0, 0.0, 0.0, 0.0, 0.0, 0.0, 0.0, 1.769680281256906E9, 0.0, 2026-01-29 15:21:21.256
57.0, 73572.28679326616, -108764.21436836892, 63216.008331299825, -170108.06293583667, -128433.99535822815, -84400.67880161748, -86053.6573593208, -79353.2302204645, -0.784, -0.28, 0.552, 192.0, 0.0, 0.0, 0.0, 0.0, 0.0, 0.0, 0.0, 0.0, 0.0, 1.769680281257013E9, 0.0, 2026-01-29 15:21:21.257
58.0, 73722.66932996147, -120513.40884130108, -5630.11385561393, -182687.64706702795, -128443.45014613273, -84409.28422323278, -86053.59030408744, -77555.63587613533, -0.784, -0.28, 0.552, 192.0, 0.0, 0.0, 0.0, 0.0, 0.0, 0.0, 0.0, 0.0, 0.0, 1.76968028125711E9, 0.0, 2026-01-29 15:21:21.257
59.0, 73745.04342616122, -120008.1253061444, 2761.714489664375, -181317.90981506227, -128444.16540195531, -84412.30170873425, -86055.19962968823, -77291.12533225123, -0.784, -0.28, 0.552, 192.0, 0.0, 0.0, 0.0, 0.0, 0.0, 0.0, 0.0, 0.0, 0.0, 1.76968028125721E9, 0.0, 2026-01-29 15:21:21.257
60.0, 73605.05445063763, -107669.89531158154, 65891.44508736671, -167439.30935136194, -128435.35881463991, -84407.76430460982, -86056.83130703346, -78943.4333376209, -0.784, -0.28, 0.552, 192.0, 0.0, 0.0, 0.0, 0.0, 0.0, 0.0, 0.0, 0.0, 0.0, 1.769680281315363E9, 0.0, 2026-01-29 15:21:21.315
61.0, 73499.88949297542, -100337.24908080687, 73630.91541897242, -160188.9175401828, -128429.59206457045, -84403.98685979687, -86058.93237101226, -79945.90907644143, -0.784, -0.28, 0.552, 192.0, 0.0, 0.0, 0.0, 0.0, 0.0, 0.0, 0.0, 0.0, 0.0, 1.769680281315493E9, 0.0, 2026-01-29 15:21:21.315
62.0, 73583.46266549382, -108875.03431737833, 62937.617354108974, -170253.4833852629, -128433.52597159457, -84406.60201389814, -86056.69719656673, -79376.49838644247, -0.782, -0.28400000000000003, 0.55, 192.0, 231.0, 144.0, 247.0, 32.0, 17.0, 48.0, 0.0, 0.0, 0.0, 1.769680281315583E9, 0.0, 2026-01-29 15:21:21.315
63.0, 73729.5536672537, -120578.76534208839, -5527.564052052981, -182734.89865480646, -128439.18096294177, -84411.42999070049, -86052.85269652042, -77593.99146962064, -0.782, -0.28400000000000003, 0.55, 192.0, 0.0, 0.0, 0.0, 0.0, 0.0, 0.0, 0.0, 0.0, 0.0, 1.769680281315681E9, 0.0, 2026-01-29 15:21:21.315
64.0, 73750.34078959713, -119892.11975242136, 4707.120920076481, -181161.71582480858, -128440.74558505364, -84415.36389772462, -86055.44549887723, -77360.7063127406, -0.782, -0.28400000000000003, 0.55, 192.0, 0.0, 0.0, 0.0, 0.0, 0.0, 0.0, 0.0, 0.0, 0.0, 1.769680281315826E9, 0.0, 2026-01-29 15:21:21.315
65.0, 73612.40817456343, -107449.73062869677, 66461.97336458843, -167213.04264224085, -128435.40351812882, -84414.31336573522, -86060.69815882423, -79012.85785589908, -0.782, -0.28400000000000003, 0.55, 192.0, 0.0, 0.0, 0.0, 0.0, 0.0, 0.0, 0.0, 0.0, 0.0, 1.769680281315937E9, 0.0, 2026-01-29 15:21:21.315
66.0, 73512.62998731494, -100287.38233892708, 73643.58885807858, -160178.32281331098, -128433.1683436833, -84414.15690352404, -86066.10728098241, -79971.36771337602, -0.782, -0.28400000000000003, 0.55, 192.0, 0.0, 0.0, 0.0, 0.0, 0.0, 0.0, 0.0, 0.0, 0.0, 1.769680281316025E9, 0.0, 2026-01-29 15:21:21.316
67.0, 73598.23716857877, -108973.44904821504, 62882.475600537735, -170373.40049426563, -128437.4151751298, -84417.26379600332, -86063.9615135147, -79405.28743330091, -0.782, -0.28400000000000003, 0.55, 192.0, 0.0, 0.0, 0.0, 0.0, 0.0, 0.0, 0.0, 0.0, 0.0, 1.769680281316124E9, 0.0, 2026-01-29 15:21:21.316
68.0, 73744.61874301657, -120615.98099660648, -4705.042207842137, -182766.5934284441, -128444.23245718867, -84423.25406351735, -86061.36871115789, -77646.71923479071, -0.782, -0.28400000000000003, 0.55, 192.0, 0.0, 0.0, 0.0, 0.0, 0.0, 0.0, 0.0, 0.0, 0.0, 1.769680281316211E9, 0.0, 2026-01-29 15:21:21.316
69.0, 73763.64007754804, -119762.70315202513, 7107.4300536429955, -181001.94555544204, -128446.37822465638, -84427.74676415286, -86064.67676933728, -77443.8771538588, -0.782, -0.28400000000000003, 0.55, 192.0, 0.0, 0.0, 0.0, 0.0, 0.0, 0.0, 0.0, 0.0, 0.0, 1.769680281316298E9, 0.0, 2026-01-29 15:21:21.316
70.0, 73620.81243047863, -107251.42595188928, 67083.75419184616, -166991.3133372442, -128438.0186722301, -84423.61169142862, -86066.97899901617, -79091.40188591504, -0.782, -0.28400000000000003, 0.55, 192.0, 0.0, 0.0, 0.0, 0.0, 0.0, 0.0, 0.0, 0.0, 0.0, 1.769680281316385E9, 0.0, 2026-01-29 15:21:21.316
71.0, 73519.93900775183, -100252.20069315443, 73650.87552677102, -160147.32094375146, -128433.50361985012, -84421.08594430517, -86070.063539751, -79995.46289389883, -0.782, -0.28400000000000003, 0.55, 192.0, 0.0, 0.0, 0.0, 0.0, 0.0, 0.0, 0.0, 0.0, 0.0, 1.769680281316512E9, 0.0, 2026-01-29 15:21:21.316
72.0, 73610.28475884018, -109080.67036636715, 62893.2938448541, -170483.70635315258, -128441.48319262067, -84427.76911589732, -86071.62816186287, -79457.59051532633, -0.786, -0.28600000000000003, 0.552, 192.0, 231.0, 112.0, 247.0, 16.0, 17.0, 64.0, 0.0, 0.0, 0.0, 1.76968028131662E9, 0.0, 2026-01-29 15:21:21.316
73.0, 73757.7615687563, -120662.40556984015, -3708.2214603688076, -182770.4826319793, -128449.93215202478, -84435.52517122331, -86070.80114731802, -77735.32154981156, -0.786, -0.28600000000000003, 0.552, 192.0, 0.0, 0.0, 0.0, 0.0, 0.0, 0.0, 0.0, 0.0, 0.0, 1.769680281316717E9, 0.0, 2026-01-29 15:21:21.316
74.0, 73773.1172171971, -119659.12516821924, 9486.035643343406, -180825.74675390086, -128450.69211133625, -84438.65441544705, -86072.83515606346, -77558.58630640343, -0.786, -0.28600000000000003, 0.552, 192.0, 0.0, 0.0, 0.0, 0.0, 0.0, 0.0, 0.0, 0.0, 0.0, 1.769680281316817E9, 0.0, 2026-01-29 15:21:21.316
75.0, 73628.05439568215, -107075.49537128156, 67679.22701588, -166750.98738086075, -128441.55024785403, -84433.71467992243, -86074.42212991978, -79184.51925331584, -0.786, -0.28600000000000003, 0.552, 192.0, 0.0, 0.0, 0.0, 0.0, 0.0, 0.0, 0.0, 0.0, 0.0, 1.769680281375761E9, 0.0, 2026-01-29 15:21:21.375
76.0, 73527.09156597752, -100238.85670171461, 73657.89397452999, -160095.35313789287, -128435.09059370645, -84429.11022056463, -86075.316199698, -80021.4356209559, -0.786, -0.28600000000000003, 0.552, 192.0, 0.0, 0.0, 0.0, 0.0, 0.0, 0.0, 0.0, 0.0, 0.0, 1.76968028137588E9, 0.0, 2026-01-29 15:21:21.375
77.0, 73618.86782871102, -109210.3775394413, 62904.26855138166, -170570.78874955044, -128442.84664903244, -84435.4804677344, -86076.63495262087, -79515.86151312132, -0.786, -0.28600000000000003, 0.552, 192.0, 0.0, 0.0, 0.0, 0.0, 0.0, 0.0, 0.0, 0.0, 0.0, 1.769680281375969E9, 0.0, 2026-01-29 15:21:21.375
78.0, 73769.25036540632, -120726.6444834047, -2570.204743171304, -182771.15318431298, -128455.18481197178, -84446.96926438443, -86079.54067940006, -77837.11139406102, -0.786, -0.28600000000000003, 0.552, 192.0, 0.0, 0.0, 0.0, 0.0, 0.0, 0.0, 0.0, 0.0, 0.0, 1.769680281376058E9, 0.0, 2026-01-29 15:21:21.376
79.0, 73782.23672893486, -119565.60546941824, 11872.285529647534, -180659.4497751534, -128455.38597767187, -84449.65147371906, -86081.15000500083, -77681.49854916317, -0.786, -0.28600000000000003, 0.552, 192.0, 0.0, 0.0, 0.0, 0.0, 0.0, 0.0, 0.0, 0.0, 0.0, 1.769680281376203E9, 0.0, 2026-01-29 15:21:21.376
80.0, 73635.27400914121, -106914.987494348, 68209.67861529335, -166527.89461945233, -128445.23828568916, -84443.59415097168, -86081.90996431232, -79278.32952479477, -0.786, -0.28600000000000003, 0.552, 192.0, 0.0, 0.0, 0.0, 0.0, 0.0, 0.0, 0.0, 0.0, 0.0, 1.769680281376331E9, 0.0, 2026-01-29 15:21:21.376
81.0, 73537.52983063816, -100254.03353619976, 73668.39929442397, -160076.01887893904, -128440.14208795335, -84440.28609279229, -86083.92162131329, -80048.7941561692, -0.786, -0.28600000000000003, 0.552, 192.0, 0.0, 0.0, 0.0, 0.0, 0.0, 0.0, 0.0, 0.0, 0.0, 1.769680281376443E9, 0.0, 2026-01-29 15:21:21.376
82.0, 73629.39550034946, -109353.18283476625, 62813.36400668192, -170674.76906475652, -128446.02059674509, -84444.7340899389, -86083.40753119082, -79568.8798509693, -0.782, -0.28800000000000003, 0.548, 192.0, 231.0, 144.0, 247.0, 0.0, 17.0, 32.0, 0.0, 0.0, 0.0, 1.769680281376544E9, 0.0, 2026-01-29 15:21:21.376
83.0, 73775.59826083163, -120797.25364413901, -1909.3754183501505, -182788.52048975474, -128454.78248057158, -84452.75836619835, -86082.73697885717, -77933.02272951875, -0.782, -0.28800000000000003, 0.548, 192.0, 0.0, 0.0, 0.0, 0.0, 0.0, 0.0, 0.0, 0.0, 0.0, 1.769680281376639E9, 0.0, 2026-01-29 15:21:21.376
84.0, 73787.10940922612, -119469.89529966061, 13935.597412061385, -180494.8962324734, -128455.58714337196, -84456.26759007784, -86085.03920853607, -77802.64500411093, -0.782, -0.28800000000000003, 0.548, 192.0, 0.0, 0.0, 0.0, 0.0, 0.0, 0.0, 0.0, 0.0, 0.0, 1.769680281376726E9, 0.0, 2026-01-29 15:21:21.376
85.0, 73639.69965454336, -106765.94606232001, 68666.68238242654, -166318.70464309512, -128446.17705895628, -84451.12668885311, -86086.64853413684, -79367.9376683161, -0.782, -0.28800000000000003, 0.548, 192.0, 0.0, 0.0, 0.0, 0.0, 0.0, 0.0, 0.0, 0.0, 0.0, 1.769680281376813E9, 0.0, 2026-01-29 15:21:21.376
86.0, 73544.34711269703, -100284.3648534256, 73675.19422473838, -160060.23854735357, -128441.59495134294, -84448.3774242851, -86088.99546730464, -80071.57058376916, -0.782, -0.28800000000000003, 0.548, 192.0, 0.0, 0.0, 0.0, 0.0, 0.0, 0.0, 0.0, 0.0, 0.0, 1.769680281376919E9, 0.0, 2026-01-29 15:21:21.376
87.0, 73638.71617778733, -109525.0006943942, 62665.21664443215, -170802.55398780754, -128448.18871595727, -84453.67478772101, -86089.37544696039, -79620.73589810562, -0.782, -0.28800000000000003, 0.548, 192.0, 0.0, 0.0, 0.0, 0.0, 0.0, 0.0, 0.0, 0.0, 0.0, 1.769680281377015E9, 0.0, 2026-01-29 15:21:21.377
88.0, 73786.19298770344, -120891.66741271823, -1498.5950587505174, -182812.05687666617, -128458.73873934016, -84463.4872035369, -86090.60479290543, -78033.11384118961, -0.782, -0.28800000000000003, 0.548, 192.0, 0.0, 0.0, 0.0, 0.0, 0.0, 0.0, 0.0, 0.0, 0.0, 1.769680281377106E9, 0.0, 2026-01-29 15:21:21.377
89.0, 73795.7148308414, -119396.84979878066, 15630.61960108514, -180346.14537312335, -128459.87867830739, -84467.17524137202, -86093.19759526225, -77927.21127596036, -0.782, -0.28800000000000003, 0.548, 192.0, 0.0, 0.0, 0.0, 0.0, 0.0, 0.0, 0.0, 0.0, 0.0, 1.769680281377204E9, 0.0, 2026-01-29 15:21:21.377
90.0, 73647.94744824737, -106619.45272915992, 69058.41905575026, -166108.12885858165, -128451.317960181, -84462.74959596987, -86095.63393540788, -79454.66243680268, -0.782, -0.28800000000000003, 0.548, 192.0, 0.0, 0.0, 0.0, 0.0, 0.0, 0.0, 0.0, 0.0, 0.0, 1.769680281436205E9, 0.0, 2026-01-29 15:21:21.436
91.0, 73554.89713607993, -100304.16849901302, 73685.45367544338, -160049.15208210374, -128447.18288745677, -84460.46971803543, -86098.2714412536, -80097.02922070376, -0.782, -0.28800000000000003, 0.548, 192.0, 0.0, 0.0, 0.0, 0.0, 0.0, 0.0, 0.0, 0.0, 0.0, 1.769680281436326E9, 0.0, 2026-01-29 15:21:21.436
92.0, 73650.87552677102, -109694.38221387652, 62376.40975432513, -170944.84519301, -128453.82135556, -84465.72237798243, -86098.56201393151, -79675.67648597676, -0.78, -0.28600000000000003, 0.548, 192.0, 231.0, 160.0, 247.0, 16.0, 17.0, 32.0, 0.0, 0.0, 0.0, 1.769680281436426E9, 0.0, 2026-01-29 15:21:21.436
93.0, 73796.7206593419, -120996.72061165818, -1389.0715109195128, -182864.3599586916, -128463.49966090915, -84474.73013099792, -86098.98669707617, -78139.26227560786, -0.78, -0.28600000000000003, 0.548, 192.0, 0.0, 0.0, 0.0, 0.0, 0.0, 0.0, 0.0, 0.0, 0.0, 1.769680281436517E9, 0.0, 2026-01-29 15:21:21.436
94.0, 73800.0734210102, -119318.73045190936, 17185.094020973924, -180198.40034227376, -128460.75039634114, -84474.70777925347, -86097.93616508676, -78061.25468745884, -0.78, -0.28600000000000003, 0.548, 192.0, 0.0, 0.0, 0.0, 0.0, 0.0, 0.0, 0.0, 0.0, 0.0, 1.769680281436667E9, 0.0, 2026-01-29 15:21:21.436
95.0, 73651.18845119339, -106468.42199187541, 69389.85072253355, -165888.411210586, -128452.23438170367, -84470.41624431804, -86100.6183744214, -79542.70595821214, -0.78, -0.28600000000000003, 0.548, 192.0, 0.0, 0.0, 0.0, 0.0, 0.0, 0.0, 0.0, 0.0, 0.0, 1.769680281436773E9, 0.0, 2026-01-29 15:21:21.436
96.0, 73559.94863032683, -100356.85156069417, 73690.25930050127, -160075.21421613864, -128447.80873630152, -84467.75638672787, -86102.4735692112, -80116.49759012433, -0.78, -0.28600000000000003, 0.548, 192.0, 0.0, 0.0, 0.0, 0.0, 0.0, 0.0, 0.0, 0.0, 0.0, 1.769680281436855E9, 0.0, 2026-01-29 15:21:21.436
97.0, 73659.57035536414, -109890.60817844966, 62059.81964586016, -171103.60963387604, -128456.07888174999, -84474.6407240201, -86104.41817097881, -79727.30901566852, -0.78, -0.28600000000000003, 0.548, 192.0, 0.0, 0.0, 0.0, 0.0, 0.0, 0.0, 0.0, 0.0, 0.0, 1.769680281436947E9, 0.0, 2026-01-29 15:21:21.436
98.0, 73802.30859545572, -121098.9351390523, -1441.6651656228503, -182908.43759875747, -128463.29849520905, -84481.14508165659, -86102.38416223337, -78245.67893095958, -0.78, -0.28600000000000003, 0.548, 192.0, 0.0, 0.0, 0.0, 0.0, 0.0, 0.0, 0.0, 0.0, 0.0, 1.76968028143703E9, 0.0, 2026-01-29 15:21:21.437
99.0, 73805.79546759075, -119226.41774730895, 18715.920295228996, -180031.0975350258, -128462.9185155533, -84483.4920148244, -86103.83702562297, -78191.2524332109, -0.78, -0.28600000000000003, 0.548, 192.0, 0.0, 0.0, 0.0, 0.0, 0.0, 0.0, 0.0, 0.0, 0.0, 1.769680281437111E9, 0.0, 2026-01-29 15:21:21.437
100.0, 73656.2846489292, -106301.00742590516, 69729.88781093214, -165672.4486556588, -128455.09540499395, -84479.8933839671, -86107.323897758, -79624.20041849618, -0.78, -0.28600000000000003, 0.548, 192.0, 0.0, 0.0, 0.0, 0.0, 0.0, 0.0, 0.0, 0.0, 0.0, 1.769680281437198E9, 0.0, 2026-01-29 15:21:21.437
101.0, 73564.59779317353, -100376.16346790356, 73694.50613194778, -160086.94888197767, -128448.30047467953, -84474.86424146465, -86106.49688321316, -80134.64720662203, -0.78, -0.28600000000000003, 0.548, 192.0, 0.0, 0.0, 0.0, 0.0, 0.0, 0.0, 0.0, 0.0, 0.0, 1.769680281437617E9, 0.0, 2026-01-29 15:21:21.437
102.0, 73665.3371054336, -110052.14423562816, 61833.37412278344, -171264.0281038318, -128456.12358523889, -84481.41330259005, -86108.08385706948, -79778.67332442681, -0.776, -0.28200000000000003, 0.552, 192.0, 231.0, 192.0, 247.0, 48.0, 17.0, 64.0, 0.0, 0.0, 0.0, 1.769680281437738E9, 0.0, 2026-01-29 15:21:21.437
103.0, 73813.52917117228, -121157.67552348084, -1116.4025803092218, -182944.44625907496, -128469.98166680118, -84494.75729402987, -86112.91183387183, -78367.0936068408, -0.776, -0.28200000000000003, 0.552, 192.0, 0.0, 0.0, 0.0, 0.0, 0.0, 0.0, 0.0, 0.0, 0.0, 1.769680281437874E9, 0.0, 2026-01-29 15:21:21.437
104.0, 73814.17737176149, -119110.38984184145, 20341.316800274468, -179878.81510005178, -128469.1770040008, -84496.56778533076, -86113.94001411677, -78337.07521403734, -0.776, -0.28200000000000003, 0.552, 192.0, 0.0, 0.0, 0.0, 0.0, 0.0, 0.0, 0.0, 0.0, 0.0, 1.76968028143801E9, 0.0, 2026-01-29 15:21:21.438
105.0, 73663.21368971035, -106137.41500823677, 70055.41861717924, -165486.90682493531, -128460.79509983005, -84492.43271260652, -86116.80103740706, -79708.04181194805, -0.776, -0.28200000000000003, 0.552, 192.0, 0.0, 0.0, 0.0, 0.0, 0.0, 0.0, 0.0, 0.0, 0.0, 1.769680281496486E9, 0.0, 2026-01-29 15:21:21.496
106.0, 73574.74548515624, -100388.45692735398, 73704.56441695266, -160093.11796344735, -128455.00599801613, -84488.2976398823, -86116.73398217368, -80158.42946272249, -0.776, -0.28200000000000003, 0.552, 192.0, 0.0, 0.0, 0.0, 0.0, 0.0, 0.0, 0.0, 0.0, 0.0, 1.769680281496604E9, 0.0, 2026-01-29 15:21:21.496
107.0, 73677.58586139511, -110172.39662079772, 61706.75149044413, -171385.1075035462, -128463.3208469535, -84495.18197717452, -86118.90210138584, -79837.48076408873, -0.776, -0.28200000000000003, 0.552, 192.0, 0.0, 0.0, 0.0, 0.0, 0.0, 0.0, 0.0, 0.0, 0.0, 1.769680281496693E9, 0.0, 2026-01-29 15:21:21.496
108.0, 73819.96647357542, -121184.6093755495, -438.2953570241162, -182949.22953238842, -128471.88156507988, -84503.09449471171, -86118.45506649674, -78489.35764901133, -0.776, -0.28200000000000003, 0.552, 192.0, 0.0, 0.0, 0.0, 0.0, 0.0, 0.0, 0.0, 0.0, 0.0, 1.769680281496793E9, 0.0, 2026-01-29 15:21:21.496
109.0, 73817.59718866316, -118975.40765707585, 22146.220165040515, -179710.08178115866, -128470.2275359902, -84504.1450267011, -86118.74563917467, -78481.91451810772, -0.776, -0.28200000000000003, 0.552, 192.0, 0.0, 0.0, 0.0, 0.0, 0.0, 0.0, 0.0, 0.0, 0.0, 1.769680281496929E9, 0.0, 2026-01-29 15:21:21.496
110.0, 73664.66655309995, -105954.06364846989, 70368.2089290868, -165272.19596769763, -128460.90685855233, -84498.91471849856, -86120.824351409, -79784.46242624075, -0.776, -0.28200000000000003, 0.552, 192.0, 0.0, 0.0, 0.0, 0.0, 0.0, 0.0, 0.0, 0.0, 0.0, 1.769680281497037E9, 0.0, 2026-01-29 15:21:21.497
111.0, 73579.95344161433, -100386.35586337518, 73709.59355945511, -160084.3784313653, -128457.50939339513, -84496.88070975312, -86122.76895317662, -80177.29433504277, -0.776, -0.28200000000000003, 0.552, 192.0, 0.0, 0.0, 0.0, 0.0, 0.0, 0.0, 0.0, 0.0, 0.0, 1.769680281497123E9, 0.0, 2026-01-29 15:21:21.497
112.0, 73684.60430915408, -110276.71221217063, 61757.84757826896, -171475.92264126812, -128466.33833245496, -84504.39089589012, -86125.54056948908, -79898.21045377379, -0.78, -0.28400000000000003, 0.55, 192.0, 231.0, 160.0, 247.0, 32.0, 17.0, 48.0, 0.0, 0.0, 0.0, 1.769680281497221E9, 0.0, 2026-01-29 15:21:21.497
113.0, 73827.45430796794, -121193.66183205388, 926.2339384834694, -182934.70089849245, -128476.62013490441, -84514.15860821708, -86126.94872938975, -78636.2086100827, -0.78, -0.28400000000000003, 0.55, 192.0, 0.0, 0.0, 0.0, 0.0, 0.0, 0.0, 0.0, 0.0, 0.0, 1.769680281497318E9, 0.0, 2026-01-29 15:21:21.497
114.0, 73821.97813057639, -118819.52659124453, 24578.067610033468, -179517.52150267622, -128473.93792556977, -84514.38212566164, -86126.5240462451, -78647.38448231036, -0.78, -0.28400000000000003, 0.55, 192.0, 0.0, 0.0, 0.0, 0.0, 0.0, 0.0, 0.0, 0.0, 0.0, 1.769680281497413E9, 0.0, 2026-01-29 15:21:21.497
115.0, 73667.46052115686, -105764.92318688908, 70754.75999769688, -165053.23827901343, -128464.1255097539, -84508.83889303672, -86128.13337184589, -79866.29216269162, -0.78, -0.28400000000000003, 0.55, 192.0, 0.0, 0.0, 0.0, 0.0, 0.0, 0.0, 0.0, 0.0, 0.0, 1.769680281497503E9, 0.0, 2026-01-29 15:21:21.497
116.0, 73586.50250273974, -100390.4462326105, 73716.03086185823, -160066.8323119679, -128462.80675683104, -84508.90594827008, -86131.68729921429, -80198.70730623095, -0.78, -0.28400000000000003, 0.55, 192.0, 0.0, 0.0, 0.0, 0.0, 0.0, 0.0, 0.0, 0.0, 0.0, 1.769680281497618E9, 0.0, 2026-01-29 15:21:21.497
117.0, 73688.8958440895, -110410.04036784654, 61820.7900906551, -171568.7941394799, -128468.1264720114, -84512.77280006085, -86131.01674688063, -79960.7729865042, -0.78, -0.28400000000000003, 0.55, 192.0, 0.0, 0.0, 0.0, 0.0, 0.0, 0.0, 0.0, 0.0, 0.0, 1.769680281497968E9, 0.0, 2026-01-29 15:21:21.497
118.0, 73826.44847946745, -121241.94160007735, 2105.0649410563638, -182918.36177329562, -128474.18379475878, -84518.31603268576, -86128.24513056818, -78797.92348121686, -0.78, -0.28400000000000003, 0.55, 192.0, 0.0, 0.0, 0.0, 0.0, 0.0, 0.0, 0.0, 0.0, 0.0, 1.769680281498058E9, 0.0, 2026-01-29 15:21:21.498
119.0, 73820.39115672007, -118716.28388360547, 26570.993849157556, -179346.39654712638, -128473.24502149166, -84520.01476526436, -86129.4744765132, -78823.42682164036, -0.78, -0.28400000000000003, 0.55, 192.0, 0.0, 0.0, 0.0, 0.0, 0.0, 0.0, 0.0, 0.0, 0.0, 1.769680281498144E9, 0.0, 2026-01-29 15:21:21.498
120.0, 73666.387637423, -105621.11206306364, 71059.34721938935, -164848.13867189153, -128464.88546906537, -84515.83498905123, -86132.6260724814, -79941.57283801709, -0.78, -0.28400000000000003, 0.55, 192.0, 0.0, 0.0, 0.0, 0.0, 0.0, 0.0, 0.0, 0.0, 0.0, 1.769680281556673E9, 0.0, 2026-01-29 15:21:21.556
