%OpenBCI Raw EXG Data
%Number of channels = 8
%Sample Rate = 250 Hz
%Board = OpenBCI_GUI$BoardCytonSerial
Sample Index, EXG Channel 0, EXG Channel 1, EXG Channel 2, EXG Channel 3, EXG Channel 4, EXG Channel 5, EXG Channel 6, EXG Channel 7, Accel Channel 0, Accel Channel 1, Accel Channel 2, Not Used, Digital Channel 0 (D11), Digital Channel 1 (D12), Digital Channel 2 (D13), Digital Channel 3 (D17), Not Used, Digital Channel 4 (D18), Analog Channel 0, Analog Channel 1, Analog Channel 2, Timestamp, Marker Channel, Timestamp (Formatted)
0.0, 0.0, 0.0, 0.0, 0.0, 0.0, 0.0, 0.0, 0.0, -0.02, -0.648, 0.776, 192.0, 255.0, 96.0, 235.0, 192.0, 24.0, 64.0, 0.0, 0.0, 0.0, 1.7695189269070787E9, 0.0, 2026-01-27 18:32:06.907
1.0, -108360.25129082815, -109034.3352001113, -108548.60944135302, -112105.82251618178, -187500.02235174447, -123940.78063258895, -154410.946894997, -116010.29229286818, -0.02, -0.648, 0.776, 192.0, 0.0, 0.0, 0.0, 0.0, 0.0, 0.0, 0.0, 0.0, 0.0, 1.7695189273894455E9, 0.0, 2026-01-27 18:32:07.389
2.0, -108226.38669328531, -108900.98469269094, -108413.64960833188, -111970.37094478261, -187500.02235174447, -123940.42300467766, -154409.62814207413, -116010.33699635709, -0.02, -0.648, 0.776, 192.0, 0.0, 0.0, 0.0, 0.0, 0.0, 0.0, 0.0, 0.0, 0.0, 1.7695189273895464E9, 0.0, 2026-01-27 18:32:07.389
3.0, -108071.35499374331, -108737.77225467829, -108251.1524261418, -111808.05257654817, -187500.02235174447, -123940.31124595538, -154408.53290659582, -116010.62756903502, -0.02, -0.648, 0.776, 192.0, 0.0, 0.0, 0.0, 0.0, 0.0, 0.0, 0.0, 0.0, 0.0, 1.769518927389572E9, 0.0, 2026-01-27 18:32:07.389
4.0, -108117.48899429906, -108779.1229819206, -108294.38069991836, -111852.10786486958, -187500.02235174447, -123939.3054174549, -154406.20832517248, -116009.75585100125, -0.02, -0.648, 0.776, 192.0, 0.0, 0.0, 0.0, 0.0, 0.0, 0.0, 0.0, 0.0, 0.0, 1.769518927389593E9, 0.0, 2026-01-27 18:32:07.389
5.0, -108297.9122755423, -108965.00008881094, -108481.33069054256, -112038.96844851595, -187500.02235174447, -123936.51144939798, -154402.1850111705, -116007.14069689998, -0.02, -0.648, 0.776, 192.0, 0.0, 0.0, 0.0, 0.0, 0.0, 0.0, 0.0, 0.0, 0.0, 1.7695189273896174E9, 0.0, 2026-01-27 18:32:07.389
6.0, -108355.15509309234, -109028.76961574193, -108544.22849943978, -112101.48627775745, -187500.02235174447, -123938.97014128807, -154403.48141234892, -116009.80055449017, -0.02, -0.648, 0.776, 192.0, 0.0, 0.0, 0.0, 0.0, 0.0, 0.0, 0.0, 0.0, 0.0, 1.7695189273896399E9, 0.0, 2026-01-27 18:32:07.389
7.0, -108223.83859441741, -108897.47546881146, -108410.58741934151, -111966.9287761365, -187500.02235174447, -123942.47936516756, -154406.0518629613, -116013.68975802539, -0.02, -0.648, 0.776, 192.0, 0.0, 0.0, 0.0, 0.0, 0.0, 0.0, 0.0, 0.0, 0.0, 1.7695189273896592E9, 0.0, 2026-01-27 18:32:07.389
8.0, -108068.73983964203, -108734.19597556544, -108247.75496098459, -111803.96220731286, -187500.02235174447, -123940.95944654458, -154403.5484675823, -116012.4827638248, -0.006, -0.646, 0.778, 192.0, 255.0, 208.0, 235.0, 208.0, 24.0, 80.0, 0.0, 0.0, 0.0, 1.7695189273896809E9, 0.0, 2026-01-27 18:32:07.389
9.0, -108115.25381985353, -108776.44077258596, -108292.03376675055, -111849.40330379049, -187500.02235174447, -123939.14895524371, -154400.687444292, -116010.98519694629, -0.006, -0.646, 0.778, 192.0, 0.0, 0.0, 0.0, 0.0, 0.0, 0.0, 0.0, 0.0, 0.0, 1.7695189273897064E9, 0.0, 2026-01-27 18:32:07.389
10.0, -108298.18049647576, -108965.76004812242, -108482.47062950977, -112041.22597470594, -187500.02235174447, -123940.17713548866, -154400.41922335856, -116012.10278416907, -0.006, -0.646, 0.778, 192.0, 0.0, 0.0, 0.0, 0.0, 0.0, 0.0, 0.0, 0.0, 0.0, 1.7695189273897276E9, 0.0, 2026-01-27 18:32:07.389
11.0, -108350.34946803444, -109024.99217092898, -108540.16048194891, -112096.94887363302, -187500.02235174447, -123939.66304536618, -154398.83224950221, -116011.83456323559, -0.006, -0.646, 0.778, 192.0, 0.0, 0.0, 0.0, 0.0, 0.0, 0.0, 0.0, 0.0, 0.0, 1.7695189273897479E9, 0.0, 2026-01-27 18:32:07.389
12.0, -108213.78030941253, -108888.62417800716, -108401.84788725947, -111957.42928474299, -187500.02235174447, -123939.81950757737, -154398.00523495738, -116012.30394986917, -0.006, -0.646, 0.778, 192.0, 0.0, 0.0, 0.0, 0.0, 0.0, 0.0, 0.0, 0.0, 0.0, 1.7695189273897688E9, 0.0, 2026-01-27 18:32:07.389
13.0, -108060.44734244912, -108726.97636210638, -108239.61892600286, -111795.89322756449, -187500.02235174447, -123939.3054174549, -154396.37355761213, -116012.05808068014, -0.006, -0.646, 0.778, 192.0, 0.0, 0.0, 0.0, 0.0, 0.0, 0.0, 0.0, 0.0, 0.0, 1.7695189273897936E9, 0.0, 2026-01-27 18:32:07.389
14.0, -108108.25772383902, -108770.18228413849, -108284.34476665793, -111840.66377170847, -187500.02235174447, -123938.16547848767, -154394.1383831666, -116011.09695566857, -0.006, -0.646, 0.778, 192.0, 0.0, 0.0, 0.0, 0.0, 0.0, 0.0, 0.0, 0.0, 0.0, 1.76951892738982E9, 0.0, 2026-01-27 18:32:07.389
15.0, -108291.4079179058, -108958.87571083018, -108474.37929801695, -112031.10063446769, -187500.02235174447, -123937.91960929867, -154392.57376105472, -116010.94049345738, -0.006, -0.646, 0.778, 192.0, 0.0, 0.0, 0.0, 0.0, 0.0, 0.0, 0.0, 0.0, 0.0, 1.7695189273902805E9, 0.0, 2026-01-27 18:32:07.390
16.0, -108343.42042725331, -109017.37022606972, -108531.4656533558, -112087.53878921733, -187500.02235174447, -123937.04789126491, -154390.47269707595, -116010.22523763482, -0.006, -0.646, 0.778, 192.0, 0.0, 0.0, 0.0, 0.0, 0.0, 0.0, 0.0, 0.0, 0.0, 1.7695189273903162E9, 0.0, 2026-01-27 18:32:07.390
17.0, -108205.51016396406, -108879.90699766959, -108392.12487842143, -111947.63922067157, -187500.02235174447, -123935.48326915305, -154387.85754297467, -116009.06294692314, -0.006, -0.646, 0.778, 192.0, 0.0, 0.0, 0.0, 0.0, 0.0, 0.0, 0.0, 0.0, 0.0, 1.769518927390339E9, 0.0, 2026-01-27 18:32:07.390
18.0, -108054.88175807975, -108720.69552191443, -108233.94158291121, -111790.2382362173, -187500.02235174447, -123935.68443485313, -154387.1422871521, -116009.55468530116, -0.01, -0.646, 0.778, 192.0, 255.0, 176.0, 235.0, 208.0, 24.0, 80.0, 0.0, 0.0, 0.0, 1.7695189273903651E9, 0.0, 2026-01-27 18:32:07.390
19.0, -108106.13430811577, -108767.43301957048, -108282.62368233487, -111839.68029495244, -187500.02235174447, -123935.21504821957, -154385.6447202736, -116009.37587134552, -0.01, -0.646, 0.778, 192.0, 0.0, 0.0, 0.0, 0.0, 0.0, 0.0, 0.0, 0.0, 0.0, 1.7695189273903923E9, 0.0, 2026-01-27 18:32:07.390
20.0, -108289.19509520473, -108956.14879800663, -108471.8088474046, -112029.0442739778, -187500.02235174447, -123934.18686797463, -154383.20838012797, -116008.43709807839, -0.01, -0.646, 0.778, 192.0, 0.0, 0.0, 0.0, 0.0, 0.0, 0.0, 0.0, 0.0, 0.0, 1.769518927390416E9, 0.0, 2026-01-27 18:32:07.390
21.0, -108343.30866853103, -109017.14670862517, -108531.2644876557, -112087.1588095616, -187500.02235174447, -123937.83020232085, -154385.60001678468, -116012.21454289134, -0.01, -0.646, 0.778, 192.0, 0.0, 0.0, 0.0, 0.0, 0.0, 0.0, 0.0, 0.0, 0.0, 1.7695189273904388E9, 0.0, 2026-01-27 18:32:07.390
22.0, -108205.26429477506, -108878.56589300226, -108391.58843655449, -111946.45457821543, -187500.02235174447, -123938.56780988787, -154385.26474061786, -116013.19801964737, -0.01, -0.646, 0.778, 192.0, 0.0, 0.0, 0.0, 0.0, 0.0, 0.0, 0.0, 0.0, 0.0, 1.7695189273904707E9, 0.0, 2026-01-27 18:32:07.390
23.0, -108053.2500807345, -108717.90155385752, -108231.3934840433, -111787.35486118257, -187500.02235174447, -123936.5561528869, -154382.22490337194, -116011.45458357986, -0.01, -0.646, 0.778, 192.0, 0.0, 0.0, 0.0, 0.0, 0.0, 0.0, 0.0, 0.0, 0.0, 1.76951892739053E9, 0.0, 2026-01-27 18:32:07.390
24.0, -108107.9671511611, -108767.7682957373, -108282.91425501279, -111839.92616414145, -187500.02235174447, -123938.4560511656, -154382.91780745005, -116013.46624058083, -0.01, -0.646, 0.778, 192.0, 0.0, 0.0, 0.0, 0.0, 0.0, 0.0, 0.0, 0.0, 0.0, 1.7695189273905487E9, 0.0, 2026-01-27 18:32:07.390
25.0, -108291.72084232818, -108957.44519918505, -108473.73109742775, -112030.47478562294, -187500.02235174447, -123937.76314708748, -154380.95085393797, -116012.79568824718, -0.01, -0.646, 0.778, 192.0, 0.0, 0.0, 0.0, 0.0, 0.0, 0.0, 0.0, 0.0, 0.0, 1.769518927390571E9, 0.0, 2026-01-27 18:32:07.390
26.0, -108339.28535452907, -109012.05051088936, -108527.24117365375, -112083.02373683736, -187500.02235174447, -123936.82437382036, -154378.89449344808, -116012.05808068014, -0.01, -0.646, 0.778, 192.0, 0.0, 0.0, 0.0, 0.0, 0.0, 0.0, 0.0, 0.0, 0.0, 1.7695189273905911E9, 0.0, 2026-01-27 18:32:07.390
27.0, -108200.01163482806, -108872.48621851043, -108386.60399754095, -111942.00658106882, -187500.02235174447, -123937.003187776, -154378.11218239216, -116012.61687429153, -0.01, -0.646, 0.778, 192.0, 0.0, 0.0, 0.0, 0.0, 0.0, 0.0, 0.0, 0.0, 0.0, 1.7695189273906145E9, 0.0, 2026-01-27 18:32:07.390
28.0, -108049.33852545483, -108713.31944624418, -108228.42070203075, -111784.44913440337, -187500.02235174447, -123935.03623426393, -154375.09469689068, -116011.11930741303, -0.01, -0.64, 0.778, 192.0, 255.0, 176.0, 236.0, 0.0, 24.0, 80.0, 0.0, 0.0, 0.0, 1.769518927390643E9, 0.0, 2026-01-27 18:32:07.390
29.0, -108104.59203774834, -108764.63905151357, -108280.92494975627, -111837.13219608452, -187500.02235174447, -123934.63390286374, -154373.53007477883, -116011.05225217967, -0.01, -0.64, 0.778, 192.0, 0.0, 0.0, 0.0, 0.0, 0.0, 0.0, 0.0, 0.0, 0.0, 1.769518927390666E9, 0.0, 2026-01-27 18:32:07.390
30.0, -108289.15039171583, -108955.45589392852, -108472.38999276042, -112028.73134955543, -187500.02235174447, -123935.63973136422, -154373.41831605654, -116012.23689463579, -0.01, -0.64, 0.778, 192.0, 0.0, 0.0, 0.0, 0.0, 0.0, 0.0, 0.0, 0.0, 0.0, 1.769518927390947E9, 0.0, 2026-01-27 18:32:07.390
31.0, -108335.15028180485, -109008.94361841008, -108525.00599920822, -112080.2521205249, -187500.02235174447, -123935.3044551974, -154372.01015615585, -116012.05808068014, -0.01, -0.64, 0.778, 192.0, 0.0, 0.0, 0.0, 0.0, 0.0, 0.0, 0.0, 0.0, 0.0, 1.7695189273909876E9, 0.0, 2026-01-27 18:32:07.390
32.0, -108193.2390562581, -108867.21120681897, -108381.7313172497, -111936.48570018836, -187500.02235174447, -123933.2033912186, -154368.94796716547, -116010.26994112373, -0.01, -0.64, 0.778, 192.0, 0.0, 0.0, 0.0, 0.0, 0.0, 0.0, 0.0, 0.0, 0.0, 1.7695189273910098E9, 0.0, 2026-01-27 18:32:07.391
33.0, -108044.42114167467, -108710.27960899826, -108224.68796070671, -111780.02348900122, -187500.02235174447, -123931.750527829, -154366.48927527538, -116009.21940913433, -0.01, -0.64, 0.778, 192.0, 0.0, 0.0, 0.0, 0.0, 0.0, 0.0, 0.0, 0.0, 0.0, 1.76951892739103E9, 0.0, 2026-01-27 18:32:07.391
34.0, -108098.78058418997, -108759.98988866687, -108276.81222877649, -111833.26534429376, -187500.02235174447, -123929.31418768337, -154362.95769965145, -116006.93953119988, -0.01, -0.64, 0.778, 192.0, 0.0, 0.0, 0.0, 0.0, 0.0, 0.0, 0.0, 0.0, 0.0, 1.7695189273910513E9, 0.0, 2026-01-27 18:32:07.391
35.0, -108281.52844685657, -108947.968059536, -108465.41624849036, -112021.62349481863, -187500.02235174447, -123928.01778650496, -154360.34254555017, -116005.68783351038, -0.01, -0.64, 0.778, 192.0, 0.0, 0.0, 0.0, 0.0, 0.0, 0.0, 0.0, 0.0, 0.0, 1.7695189273910708E9, 0.0, 2026-01-27 18:32:07.391
36.0, -108326.88013635638, -109000.11467935023, -108516.11000491501, -112071.06555355378, -187500.02235174447, -123928.17424871615, -154359.24731007186, -116005.97840618831, -0.01, -0.64, 0.778, 192.0, 0.0, 0.0, 0.0, 0.0, 0.0, 0.0, 0.0, 0.0, 0.0, 1.7695189273910909E9, 0.0, 2026-01-27 18:32:07.391
37.0, -108185.4830009321, -108857.59995670318, -108372.0306601561, -111926.0697872722, -187500.02235174447, -123928.17424871615, -154358.17442633802, -116006.26897886622, -0.01, -0.64, 0.778, 192.0, 0.0, 0.0, 0.0, 0.0, 0.0, 0.0, 0.0, 0.0, 0.0, 1.7695189273911085E9, 0.0, 2026-01-27 18:32:07.391
38.0, -108038.14030148272, -108701.69653912743, -108216.39546351379, -111770.99338424127, -187500.02235174447, -123927.25782719349, -154356.16276933704, -116005.59842653257, -0.006, -0.64, 0.784, 192.0, 255.0, 208.0, 236.0, 0.0, 24.0, 128.0, 0.0, 0.0, 0.0, 1.7695189273911283E9, 0.0, 2026-01-27 18:32:07.391
39.0, -108100.88164816877, -108759.94518517794, -108276.65576656531, -111832.7512541713, -187500.02235174447, -123928.1518969717, -154355.7827896813, -116006.5819032886, -0.006, -0.64, 0.784, 192.0, 0.0, 0.0, 0.0, 0.0, 0.0, 0.0, 0.0, 0.0, 0.0, 1.7695189273911467E9, 0.0, 2026-01-27 18:32:07.391
40.0, -108290.1115167274, -108954.60652763922, -108472.72526892726, -112028.8878117666, -187500.02235174447, -123925.2461701925, -154351.5806617237, -116003.6314730205, -0.006, -0.64, 0.784, 192.0, 0.0, 0.0, 0.0, 0.0, 0.0, 0.0, 0.0, 0.0, 0.0, 1.7695189273911731E9, 0.0, 2026-01-27 18:32:07.391
41.0, -108324.19792702174, -108995.95725488153, -108512.15374614642, -112066.46109419598, -187500.02235174447, -123924.1956382031, -154349.34548727816, -116002.84916196456, -0.006, -0.64, 0.784, 192.0, 0.0, 0.0, 0.0, 0.0, 0.0, 0.0, 0.0, 0.0, 0.0, 1.7695189273912003E9, 0.0, 2026-01-27 18:32:07.391
42.0, -108168.22745421261, -108839.60680241666, -108354.01515412513, -111907.89781903003, -187500.02235174447, -123926.251998693, -154350.41837101203, -116005.30785385464, -0.006, -0.64, 0.784, 192.0, 0.0, 0.0, 0.0, 0.0, 0.0, 0.0, 0.0, 0.0, 0.0, 1.7695189273912272E9, 0.0, 2026-01-27 18:32:07.391
43.0, -108024.7963100429, -108686.49735289782, -108202.0903470624, -111756.75532302324, -187500.02235174447, -123926.47551613755, -154349.77017042282, -116005.93370269939, -0.006, -0.64, 0.784, 192.0, 0.0, 0.0, 0.0, 0.0, 0.0, 0.0, 0.0, 0.0, 0.0, 1.769518927391248E9, 0.0, 2026-01-27 18:32:07.391
44.0, -108099.58524699036, -108756.54772002074, -108274.66646130878, -111830.00198960329, -187500.02235174447, -123925.73790857053, -154348.00438261084, -116005.39726083247, -0.006, -0.64, 0.784, 192.0, 0.0, 0.0, 0.0, 0.0, 0.0, 0.0, 0.0, 0.0, 0.0, 1.769518927391373E9, 0.0, 2026-01-27 18:32:07.391
45.0, -108294.24658945164, -108957.71342011851, -108476.03332710665, -112031.90529726808, -187500.02235174447, -123926.4531643931, -154347.31147853273, -116006.13486839949, -0.006, -0.64, 0.784, 192.0, 0.0, 0.0, 0.0, 0.0, 0.0, 0.0, 0.0, 0.0, 0.0, 1.769518927391462E9, 0.0, 2026-01-27 18:32:07.391
46.0, -108327.14835728984, -108997.94656013807, -108514.56773454759, -112069.43387620854, -187500.02235174447, -123926.14023997071, -154345.81391165423, -116006.02310967722, -0.006, -0.64, 0.784, 192.0, 0.0, 0.0, 0.0, 0.0, 0.0, 0.0, 0.0, 0.0, 0.0, 1.7695189273914812E9, 0.0, 2026-01-27 18:32:07.391
47.0, -108168.24980595706, -108838.66802914954, -108353.41165702483, -111907.40608065201, -187500.02235174447, -123925.31322542588, -154344.00342035334, -116005.50901955474, -0.006, -0.64, 0.784, 192.0, 0.0, 0.0, 0.0, 0.0, 0.0, 0.0, 0.0, 0.0, 0.0, 1.769518927391499E9, 0.0, 2026-01-27 18:32:07.391
48.0, -108025.46686237656, -108687.07849825366, -108202.20210578467, -111756.80002651215, -187500.02235174447, -123925.49203938151, -154343.19875755295, -116006.02310967722, -0.006, -0.64, 0.78, 192.0, 255.0, 208.0, 236.0, 0.0, 24.0, 96.0, 0.0, 0.0, 0.0, 1.7695189273915195E9, 0.0, 2026-01-27 18:32:07.391
49.0, -108101.39573829123, -108758.78289446628, -108275.89580725382, -111831.47720473734, -187500.02235174447, -123924.3521004143, -154340.941231363, -116005.08433641009, -0.006, -0.64, 0.78, 192.0, 0.0, 0.0, 0.0, 0.0, 0.0, 0.0, 0.0, 0.0, 0.0, 1.7695189273915415E9, 0.0, 2026-01-27 18:32:07.391
50.0, -108293.73249932915, -108956.90875731812, -108474.84868465051, -112030.3406751562, -187500.02235174447, -123922.2510364355, -154337.6331731836, -116003.07267940912, -0.006, -0.64, 0.78, 192.0, 0.0, 0.0, 0.0, 0.0, 0.0, 0.0, 0.0, 0.0, 0.0, 1.7695189273915603E9, 0.0, 2026-01-27 18:32:07.391
51.0, -108324.98023807768, -108995.42081301461, -108511.2149728793, -112065.58937616223, -187500.02235174447, -123922.36279515778, -154336.64969642757, -116003.49736255377, -0.006, -0.64, 0.78, 192.0, 0.0, 0.0, 0.0, 0.0, 0.0, 0.0, 0.0, 0.0, 0.0, 1.7695189273915794E9, 0.0, 2026-01-27 18:32:07.391
52.0, -108168.45097165716, -108838.26569774935, -108352.78580818008, -111907.29432192974, -187500.02235174447, -123924.17328645865, -154337.3873039946, -116005.57607478811, -0.006, -0.64, 0.78, 192.0, 0.0, 0.0, 0.0, 0.0, 0.0, 0.0, 0.0, 0.0, 0.0, 1.769518927391598E9, 0.0, 2026-01-27 18:32:07.391
53.0, -108025.26569667646, -108686.22913196436, -108201.48684996211, -111757.24706140126, -187500.02235174447, -123922.51925736896, -154334.6380394266, -116004.14556314297, -0.006, -0.64, 0.78, 192.0, 0.0, 0.0, 0.0, 0.0, 0.0, 0.0, 0.0, 0.0, 0.0, 1.7695189273916187E9, 0.0, 2026-01-27 18:32:07.391
54.0, -108101.2169243356, -108758.24645259934, -108274.50999909759, -111829.82317564765, -187500.02235174447, -123920.12762071224, -154331.1288155471, -116001.95509218636, -0.006, -0.64, 0.78, 192.0, 0.0, 0.0, 0.0, 0.0, 0.0, 0.0, 0.0, 0.0, 0.0, 1.7695189273916385E9, 0.0, 2026-01-27 18:32:07.391
55.0, -108294.42540340727, -108958.62984164117, -108475.38512651743, -112030.31832341175, -187500.02235174447, -123919.03238523394, -154328.670123657, -116000.85985670803, -0.006, -0.64, 0.78, 192.0, 0.0, 0.0, 0.0, 0.0, 0.0, 0.0, 0.0, 0.0, 0.0, 1.7695189273916607E9, 0.0, 2026-01-27 18:32:07.391
56.0, -108324.2649822551, -108996.58310372628, -108511.93022870187, -112066.43874245153, -187500.02235174447, -123918.9429782561, -154327.4184259675, -116001.0833741526, -0.006, -0.64, 0.78, 192.0, 0.0, 0.0, 0.0, 0.0, 0.0, 0.0, 0.0, 0.0, 0.0, 1.7695189273916824E9, 0.0, 2026-01-27 18:32:07.391
57.0, -108161.65604134275, -108833.81770060274, -108347.66725869982, -111901.92990326046, -187500.02235174447, -123915.14318169872, -154322.679856143, -115997.64120550647, -0.006, -0.64, 0.78, 192.0, 0.0, 0.0, 0.0, 0.0, 0.0, 0.0, 0.0, 0.0, 0.0, 1.7695189273917103E9, 0.0, 2026-01-27 18:32:07.391
58.0, -108022.33761815281, -108686.18442847543, -108200.52572495052, -111754.65425904444, -187500.02235174447, -123915.47845786554, -154322.05400729825, -115998.26705435122, -0.006, -0.644, 0.778, 192.0, 255.0, 208.0, 235.0, 224.0, 24.0, 80.0, 0.0, 0.0, 0.0, 1.769518927391744E9, 0.0, 2026-01-27 18:32:07.391
59.0, -108104.90496217072, -108765.73428699188, -108282.31075791249, -111837.35571352909, -187500.02235174447, -123918.00420498899, -154323.46216719892, -116001.06102240813, -0.006, -0.644, 0.778, 192.0, 0.0, 0.0, 0.0, 0.0, 0.0, 0.0, 0.0, 0.0, 0.0, 1.7695189273919425E9, 0.0, 2026-01-27 18:32:07.391
60.0, -108299.812173821, -108967.63759465667, -108484.72815569976, -112040.22014620545, -187500.02235174447, -123919.39001314522, -154323.70803638792, -116002.64799626447, -0.006, -0.644, 0.778, 192.0, 0.0, 0.0, 0.0, 0.0, 0.0, 0.0, 0.0, 0.0, 0.0, 1.76951892739196E9, 0.0, 2026-01-27 18:32:07.391
61.0, -108327.30481950103, -109002.55101949585, -108517.80873749361, -112072.31725124326, -187500.02235174447, -123918.27242592245, -154321.5622689202, -116001.68687125288, -0.006, -0.644, 0.778, 192.0, 0.0, 0.0, 0.0, 0.0, 0.0, 0.0, 0.0, 0.0, 0.0, 1.769518927391974E9, 0.0, 2026-01-27 18:32:07.391
62.0, -108167.02046001202, -108841.685514651, -108355.64683147035, -111909.70831033091, -187500.02235174447, -123917.15483869969, -154319.43885319697, -116001.01631891922, -0.006, -0.644, 0.778, 192.0, 0.0, 0.0, 0.0, 0.0, 0.0, 0.0, 0.0, 0.0, 0.0, 1.7695189273919883E9, 0.0, 2026-01-27 18:32:07.391
63.0, -108026.4503391326, -108691.5041436558, -108206.49364072009, -111761.11391319204, -187500.02235174447, -123915.41140263218, -154316.8236990957, -115999.80932471865, -0.006, -0.644, 0.778, 192.0, 0.0, 0.0, 0.0, 0.0, 0.0, 0.0, 0.0, 0.0, 0.0, 1.769518927392002E9, 0.0, 2026-01-27 18:32:07.392
64.0, -108103.67561622568, -108763.90144394654, -108280.25439742261, -111835.0981873391, -187500.02235174447, -123912.81860027536, -154313.1133095161, -115997.37298457301, -0.006, -0.644, 0.778, 192.0, 0.0, 0.0, 0.0, 0.0, 0.0, 0.0, 0.0, 0.0, 0.0, 1.7695189273920164E9, 0.0, 2026-01-27 18:32:07.392
65.0, -108298.53812438705, -108964.88833008867, -108481.71067019828, -112036.0403699923, -187500.02235174447, -123913.31033865338, -154312.30864671574, -115997.82001946212, -0.006, -0.644, 0.778, 192.0, 0.0, 0.0, 0.0, 0.0, 0.0, 0.0, 0.0, 0.0, 0.0, 1.7695189273920336E9, 0.0, 2026-01-27 18:32:07.392
66.0, -108327.48363345666, -109000.78523168388, -108516.11000491501, -112069.97031807546, -187500.02235174447, -123912.66213806417, -154310.65461762605, -115997.4847432953, -0.006, -0.644, 0.778, 192.0, 0.0, 0.0, 0.0, 0.0, 0.0, 0.0, 0.0, 0.0, 0.0, 1.7695189273920474E9, 0.0, 2026-01-27 18:32:07.392
67.0, -108165.47818964461, -108838.51156693835, -108352.6740494578, -111907.00374925182, -187500.02235174447, -123909.80111477389, -154307.03363502427, -115995.1825136164, -0.006, -0.644, 0.778, 192.0, 0.0, 0.0, 0.0, 0.0, 0.0, 0.0, 0.0, 0.0, 0.0, 1.7695189273920608E9, 0.0, 2026-01-27 18:32:07.392
68.0, -108027.03148448843, -108691.77236458927, -108206.85126863138, -111762.18679692589, -187500.02235174447, -123910.0469839629, -154306.18426873497, -115995.69660373886, -0.01, -0.64, 0.782, 192.0, 255.0, 176.0, 236.0, 0.0, 24.0, 112.0, 0.0, 0.0, 0.0, 1.7695189273920743E9, 0.0, 2026-01-27 18:32:07.392
69.0, -108107.52011627199, -108767.88005445959, -108284.63533933584, -111839.61323971907, -187500.02235174447, -123910.15874268518, -154305.0666815122, -115995.92012118342, -0.01, -0.64, 0.782, 192.0, 0.0, 0.0, 0.0, 0.0, 0.0, 0.0, 0.0, 0.0, 0.0, 1.769518927392089E9, 0.0, 2026-01-27 18:32:07.392
70.0, -108303.38845293385, -108970.58802492477, -108487.90210341242, -112042.00828576187, -187500.02235174447, -123911.32103339685, -154304.99962627885, -115997.14946712846, -0.01, -0.64, 0.782, 192.0, 0.0, 0.0, 0.0, 0.0, 0.0, 0.0, 0.0, 0.0, 0.0, 1.7695189273921027E9, 0.0, 2026-01-27 18:32:07.392
71.0, -108332.69158991476, -109007.15547885365, -108523.0613974406, -112076.67584141206, -187500.02235174447, -123911.74571654151, -154304.37377743408, -115997.75296422876, -0.01, -0.64, 0.782, 192.0, 0.0, 0.0, 0.0, 0.0, 0.0, 0.0, 0.0, 0.0, 0.0, 1.7695189273921163E9, 0.0, 2026-01-27 18:32:07.392
72.0, -108170.39557342477, -108843.76422688535, -108358.21728208271, -111911.20587720942, -187500.02235174447, -123909.39878337369, -154300.99866402135, -115995.65190024996, -0.01, -0.64, 0.782, 192.0, 0.0, 0.0, 0.0, 0.0, 0.0, 0.0, 0.0, 0.0, 0.0, 1.76951892739213E9, 0.0, 2026-01-27 18:32:07.392
73.0, -108034.51931888096, -108698.96962630388, -108213.93677162372, -111766.97007023932, -187500.02235174447, -123911.16457118567, -154301.73627158836, -115997.77531597321, -0.01, -0.64, 0.782, 192.0, 0.0, 0.0, 0.0, 0.0, 0.0, 0.0, 0.0, 0.0, 0.0, 1.769518927392144E9, 0.0, 2026-01-27 18:32:07.392
74.0, -108117.64545651025, -108777.64776678655, -108294.44775515173, -111849.38095204603, -187500.02235174447, -123912.34921364179, -154301.73627158836, -115999.20582761835, -0.01, -0.64, 0.782, 192.0, 0.0, 0.0, 0.0, 0.0, 0.0, 0.0, 0.0, 0.0, 0.0, 1.769518927392171E9, 0.0, 2026-01-27 18:32:07.392
75.0, -108312.12798501588, -108978.25467327294, -108496.01578664969, -112051.10544575518, -187500.02235174447, -123910.73988804102, -154298.76348957582, -115997.59650201756, -0.01, -0.64, 0.782, 192.0, 0.0, 0.0, 0.0, 0.0, 0.0, 0.0, 0.0, 0.0, 0.0, 1.7695189273921845E9, 0.0, 2026-01-27 18:32:07.392
76.0, -108339.1735958068, -109012.07286263381, -108528.13524343196, -112081.83909438123, -187500.02235174447, -123911.27632990794, -154298.07058549768, -115998.31175784013, -0.01, -0.64, 0.782, 192.0, 0.0, 0.0, 0.0, 0.0, 0.0, 0.0, 0.0, 0.0, 0.0, 1.7695189273921983E9, 0.0, 2026-01-27 18:32:07.392
77.0, -108177.05639327245, -108848.32398275424, -108362.88879667388, -111915.45270865592, -187500.02235174447, -123909.89052175172, -154295.70130058544, -115997.26122585074, -0.01, -0.64, 0.782, 192.0, 0.0, 0.0, 0.0, 0.0, 0.0, 0.0, 0.0, 0.0, 0.0, 1.7695189273922124E9, 0.0, 2026-01-27 18:32:07.392
78.0, -108040.82251081736, -108702.94823681691, -108219.12237633734, -111772.42389588642, -187500.02235174447, -123908.83998976232, -154293.75669881783, -115996.59067351707, -0.014, -0.638, 0.784, 192.0, 255.0, 144.0, 236.0, 16.0, 24.0, 128.0, 0.0, 0.0, 0.0, 1.769518927392226E9, 0.0, 2026-01-27 18:32:07.392
79.0, -108125.4685670696, -108783.90625523405, -108302.04734826653, -111856.68997248293, -187500.02235174447, -123908.70587929558, -154292.59440810615, -115996.65772875045, -0.014, -0.638, 0.784, 192.0, 0.0, 0.0, 0.0, 0.0, 0.0, 0.0, 0.0, 0.0, 0.0, 1.7695189273922403E9, 0.0, 2026-01-27 18:32:07.392
80.0, -108317.47005194069, -108982.94853960855, -108501.13433612995, -112055.28522196833, -187500.02235174447, -123906.09072519431, -154288.92872201547, -115994.35549907155, -0.014, -0.638, 0.784, 192.0, 0.0, 0.0, 0.0, 0.0, 0.0, 0.0, 0.0, 0.0, 0.0, 1.7695189273922544E9, 0.0, 2026-01-27 18:32:07.392
81.0, -108340.40294175183, -109013.90570567915, -108530.77274927769, -112084.43189673805, -187500.02235174447, -123905.71074553857, -154287.5205621148, -115994.26609209372, -0.014, -0.638, 0.784, 192.0, 0.0, 0.0, 0.0, 0.0, 0.0, 0.0, 0.0, 0.0, 0.0, 1.769518927392268E9, 0.0, 2026-01-27 18:32:07.392
82.0, -108178.77747759552, -108851.85555837817, -108367.20268335375, -111921.04064476975, -187500.02235174447, -123905.66604204966, -154286.4253266365, -115994.44490604936, -0.014, -0.638, 0.784, 192.0, 0.0, 0.0, 0.0, 0.0, 0.0, 0.0, 0.0, 0.0, 0.0, 1.7695189273922818E9, 0.0, 2026-01-27 18:32:07.392
83.0, -108047.5503858984, -108711.77717587676, -108227.68309446372, -111781.40929715744, -187500.02235174447, -123906.29189089441, -154286.33591965865, -115995.80836246115, -0.014, -0.638, 0.784, 192.0, 0.0, 0.0, 0.0, 0.0, 0.0, 0.0, 0.0, 0.0, 0.0, 1.7695189273922954E9, 0.0, 2026-01-27 18:32:07.392
84.0, -108131.45883458362, -108791.93053149349, -108309.93751405926, -111863.90958594199, -187500.02235174447, -123904.23553040452, -154283.2737306683, -115994.08727813809, -0.014, -0.638, 0.784, 192.0, 0.0, 0.0, 0.0, 0.0, 0.0, 0.0, 0.0, 0.0, 0.0, 1.7695189273923154E9, 0.0, 2026-01-27 18:32:07.392
85.0, -108323.57207817699, -108990.68224319008, -108509.33742634505, -112063.8012366058, -187500.02235174447, -123902.8497222483, -154280.6138730781, -115992.79087695967, -0.014, -0.638, 0.784, 192.0, 0.0, 0.0, 0.0, 0.0, 0.0, 0.0, 0.0, 0.0, 0.0, 1.7695189273923378E9, 0.0, 2026-01-27 18:32:07.392
86.0, -108344.85093889844, -109018.44310980357, -108535.48896735776, -112089.43868749603, -187500.02235174447, -123902.40268735918, -154279.13865794404, -115992.63441474849, -0.014, -0.638, 0.784, 192.0, 0.0, 0.0, 0.0, 0.0, 0.0, 0.0, 0.0, 0.0, 0.0, 1.7695189273923564E9, 0.0, 2026-01-27 18:32:07.392
87.0, -108182.42081194173, -108854.58247120172, -108370.24252059967, -111923.32052270419, -187500.02235174447, -123901.77683851443, -154277.5740358322, -115992.41089730394, -0.014, -0.638, 0.784, 192.0, 0.0, 0.0, 0.0, 0.0, 0.0, 0.0, 0.0, 0.0, 0.0, 1.7695189273923757E9, 0.0, 2026-01-27 18:32:07.392
88.0, -108051.37253420026, -108714.34762648912, -108230.52176600955, -111784.33737568109, -187500.02235174447, -123902.06741119236, -154276.9705387319, -115993.14850487096, -0.014, -0.634, 0.78, 192.0, 255.0, 144.0, 236.0, 48.0, 24.0, 96.0, 0.0, 0.0, 0.0, 1.7695189273923945E9, 0.0, 2026-01-27 18:32:07.392
89.0, -108140.08660794338, -108798.83722053019, -108316.8665548404, -111871.28566161224, -187500.02235174447, -123904.19082691561, -154277.8199050212, -115995.47308629431, -0.014, -0.634, 0.78, 192.0, 0.0, 0.0, 0.0, 0.0, 0.0, 0.0, 0.0, 0.0, 0.0, 1.7695189273924248E9, 0.0, 2026-01-27 18:32:07.392
90.0, -108331.01520908061, -108996.58310372628, -108515.19358339233, -112069.00919306389, -187500.02235174447, -123902.87207399275, -154275.18239917545, -115994.08727813809, -0.014, -0.634, 0.78, 192.0, 0.0, 0.0, 0.0, 0.0, 0.0, 0.0, 0.0, 0.0, 0.0, 1.769518927392443E9, 0.0, 2026-01-27 18:32:07.392
91.0, -108348.58368022248, -109021.30413309386, -108538.08176971457, -112091.38328926364, -187500.02235174447, -123900.52514082495, -154271.6061200626, -115991.96386241484, -0.014, -0.634, 0.78, 192.0, 0.0, 0.0, 0.0, 0.0, 0.0, 0.0, 0.0, 0.0, 0.0, 1.769518927392462E9, 0.0, 2026-01-27 18:32:07.392
92.0, -108185.05831778745, -108856.92940436953, -108372.29888108956, -111925.33217970518, -187500.02235174447, -123899.49696058, -154269.48270433937, -115991.11449612553, -0.014, -0.634, 0.78, 192.0, 0.0, 0.0, 0.0, 0.0, 0.0, 0.0, 0.0, 0.0, 0.0, 1.7695189273924823E9, 0.0, 2026-01-27 18:32:07.392
93.0, -108053.78652260144, -108717.14159454603, -108233.15927185527, -111787.04193676019, -187500.02235174447, -123898.2005594016, -154267.09106768263, -115989.95220541385, -0.014, -0.634, 0.78, 192.0, 0.0, 0.0, 0.0, 0.0, 0.0, 0.0, 0.0, 0.0, 0.0, 1.7695189273925014E9, 0.0, 2026-01-27 18:32:07.392
94.0, -108141.29360214397, -108801.09474672018, -108319.39230196385, -111874.21374013588, -187500.02235174447, -123897.97704195704, -154265.74996301532, -115989.9745571583, -0.014, -0.634, 0.78, 192.0, 0.0, 0.0, 0.0, 0.0, 0.0, 0.0, 0.0, 0.0, 0.0, 1.7695189273925202E9, 0.0, 2026-01-27 18:32:07.392
95.0, -108332.91510735931, -109000.96404563953, -108519.8650979835, -112074.41831522206, -187500.02235174447, -123897.9993937015, -154264.49826532582, -115990.06396413613, -0.014, -0.634, 0.78, 192.0, 0.0, 0.0, 0.0, 0.0, 0.0, 0.0, 0.0, 0.0, 0.0, 1.7695189273925345E9, 0.0, 2026-01-27 18:32:07.392
96.0, -108353.81398842503, -109028.56845004183, -108545.88252852947, -112099.34051028974, -187500.02235174447, -123899.9439954691, -154265.3029281262, -115992.20973160384, -0.014, -0.634, 0.78, 192.0, 0.0, 0.0, 0.0, 0.0, 0.0, 0.0, 0.0, 0.0, 0.0, 1.7695189273925483E9, 0.0, 2026-01-27 18:32:07.392
97.0, -108190.24392250109, -108863.21024456147, -108379.09381140397, -111932.50708967533, -187500.02235174447, -123900.23456814702, -154264.74413451483, -115992.90263568195, -0.014, -0.634, 0.78, 192.0, 0.0, 0.0, 0.0, 0.0, 0.0, 0.0, 0.0, 0.0, 0.0, 1.7695189273925624E9, 0.0, 2026-01-27 18:32:07.392
98.0, -108060.02265930446, -108724.67413242748, -108241.13884462582, -111796.1390967535, -187500.02235174447, -123898.08880067931, -154261.5031315688, -115991.11449612553, -0.012, -0.64, 0.782, 192.0, 255.0, 160.0, 236.0, 0.0, 24.0, 112.0, 0.0, 0.0, 0.0, 1.769518927392576E9, 0.0, 2026-01-27 18:32:07.392
99.0, -108147.3285731469, -108808.31436017924, -108326.7683776341, -111881.90274022851, -187500.02235174447, -123896.07714367834, -154258.37388734508, -115989.19224610236, -0.012, -0.64, 0.782, 192.0, 0.0, 0.0, 0.0, 0.0, 0.0, 0.0, 0.0, 0.0, 0.0, 1.7695189273925912E9, 0.0, 2026-01-27 18:32:07.392
100.0, -108338.43598823977, -109006.19435384207, -108525.38597886395, -112080.27447226936, -187500.02235174447, -123895.98773670051, -154257.0104309333, -115989.23694959129, -0.012, -0.64, 0.782, 192.0, 0.0, 0.0, 0.0, 0.0, 0.0, 0.0, 0.0, 0.0, 0.0, 1.769518927392605E9, 0.0, 2026-01-27 18:32:07.392
101.0, -108355.60212798144, -109030.15542389816, -108547.26833668571, -112101.17335333508, -187500.02235174447, -123895.98773670051, -154255.915195455, -115989.48281878029, -0.012, -0.64, 0.782, 192.0, 0.0, 0.0, 0.0, 0.0, 0.0, 0.0, 0.0, 0.0, 0.0, 1.7695189273926184E9, 0.0, 2026-01-27 18:32:07.392
102.0, -108190.9368265792, -108863.85844515068, -108379.65260501536, -111933.31175247571, -187500.02235174447, -123895.20542564457, -154254.03764892076, -115988.94637691336, -0.012, -0.64, 0.782, 192.0, 0.0, 0.0, 0.0, 0.0, 0.0, 0.0, 0.0, 0.0, 0.0, 1.7695189273926325E9, 0.0, 2026-01-27 18:32:07.392
103.0, -108062.57075817237, -108726.77519640628, -108243.93281268273, -111798.97776829932, -187500.02235174447, -123893.30552736587, -154251.1989773749, -115987.4264582904, -0.012, -0.64, 0.782, 192.0, 0.0, 0.0, 0.0, 0.0, 0.0, 0.0, 0.0, 0.0, 0.0, 1.7695189273926575E9, 0.0, 2026-01-27 18:32:07.392
104.0, -108151.9777359936, -108812.11415673664, -108331.28343001407, -111886.73071703086, -187500.02235174447, -123893.10436166578, -154249.8131692187, -115987.31469956813, -0.012, -0.64, 0.782, 192.0, 0.0, 0.0, 0.0, 0.0, 0.0, 0.0, 0.0, 0.0, 0.0, 1.7695189273926768E9, 0.0, 2026-01-27 18:32:07.392
105.0, -108344.58271796498, -109011.55877251134, -108531.17508067789, -112086.24238803893, -187500.02235174447, -123895.00425994447, -154250.41666631898, -115989.25930133574, -0.012, -0.64, 0.782, 192.0, 0.0, 0.0, 0.0, 0.0, 0.0, 0.0, 0.0, 0.0, 0.0, 1.769518927392696E9, 0.0, 2026-01-27 18:32:07.392
106.0, -108362.39705829586, -109036.19039490109, -108554.77852282269, -112108.92940866106, -187500.02235174447, -123896.47947507852, -154250.64018376355, -115990.84627519206, -0.012, -0.64, 0.782, 192.0, 0.0, 0.0, 0.0, 0.0, 0.0, 0.0, 0.0, 0.0, 0.0, 1.76951892739271E9, 0.0, 2026-01-27 18:32:07.392
107.0, -108200.01163482806, -108872.12859059914, -108389.2862068756, -111943.05711305822, -187500.02235174447, -123896.7923995009, -154249.99198317435, -115991.44977229236, -0.012, -0.64, 0.782, 192.0, 0.0, 0.0, 0.0, 0.0, 0.0, 0.0, 0.0, 0.0, 0.0, 1.769518927392724E9, 0.0, 2026-01-27 18:32:07.392
108.0, -108072.98667108854, -108736.3640947776, -108254.21461513218, -111808.94664632638, -187500.02235174447, -123894.51252156646, -154246.68392499496, -115989.54987401365, -0.012, -0.64, 0.782, 192.0, 255.0, 160.0, 236.0, 0.0, 24.0, 112.0, 0.0, 0.0, 0.0, 1.7695189273927395E9, 0.0, 2026-01-27 18:32:07.392
109.0, -108160.784323309, -108820.04902601827, -108340.40294175183, -111896.56548459119, -187500.02235174447, -123891.495036065, -154242.5488522707, -115986.68885072338, -0.012, -0.64, 0.782, 192.0, 0.0, 0.0, 0.0, 0.0, 0.0, 0.0, 0.0, 0.0, 0.0, 1.7695189273927543E9, 0.0, 2026-01-27 18:32:07.392
110.0, -108350.05889535653, -109015.1797551131, -108536.6736098139, -112092.59028346423, -187500.02235174447, -123890.66802152015, -154240.42543654746, -115985.86183617853, -0.012, -0.64, 0.782, 192.0, 0.0, 0.0, 0.0, 0.0, 0.0, 0.0, 0.0, 0.0, 0.0, 1.7695189273927684E9, 0.0, 2026-01-27 18:32:07.392
111.0, -108365.3251368195, -109037.21857514603, -108557.43838041287, -112112.59509475174, -187500.02235174447, -123891.22681513154, -154239.7548842138, -115986.68885072338, -0.012, -0.64, 0.782, 192.0, 0.0, 0.0, 0.0, 0.0, 0.0, 0.0, 0.0, 0.0, 0.0, 1.769518927392782E9, 0.0, 2026-01-27 18:32:07.392
112.0, -108199.63165517231, -108869.66989870905, -108389.10739291995, -111944.15234853655, -187500.02235174447, -123888.27638486343, -154235.79862544523, -115984.11840011101, -0.012, -0.64, 0.782, 192.0, 0.0, 0.0, 0.0, 0.0, 0.0, 0.0, 0.0, 0.0, 0.0, 1.7695189273927958E9, 0.0, 2026-01-27 18:32:07.392
113.0, -108075.15479030072, -108735.9617633774, -108256.91917621126, -111812.29940799468, -187500.02235174447, -123887.47172206304, -154233.87637542206, -115983.44784777735, -0.012, -0.64, 0.782, 192.0, 0.0, 0.0, 0.0, 0.0, 0.0, 0.0, 0.0, 0.0, 0.0, 1.7695189273928096E9, 0.0, 2026-01-27 18:32:07.392
114.0, -108166.81929431192, -108823.62530513112, -108346.75083717714, -111902.77926954976, -187500.02235174447, -123887.6952395076, -154232.93760215494, -115983.76077219973, -0.012, -0.64, 0.782, 192.0, 0.0, 0.0, 0.0, 0.0, 0.0, 0.0, 0.0, 0.0, 0.0, 1.7695189273928235E9, 0.0, 2026-01-27 18:32:07.392
115.0, -108357.68084021579, -109021.0806156493, -108544.31790641761, -112100.07811785676, -187500.02235174447, -123888.72341975254, -154232.55762249918, -115984.8783594225, -0.012, -0.64, 0.782, 192.0, 0.0, 0.0, 0.0, 0.0, 0.0, 0.0, 0.0, 0.0, 0.0, 1.7695189273928373E9, 0.0, 2026-01-27 18:32:07.392
116.0, -108372.25417760065, -109042.00184845948, -108563.94273804936, -112118.33949307675, -187500.02235174447, -123888.5893092858, -154231.19416608743, -115984.8783594225, -0.012, -0.64, 0.782, 192.0, 0.0, 0.0, 0.0, 0.0, 0.0, 0.0, 0.0, 0.0, 0.0, 1.7695189273928509E9, 0.0, 2026-01-27 18:32:07.392
117.0, -108209.68994017721, -108877.0459743793, -108397.62340755742, -111951.64018292907, -187500.02235174447, -123888.52225405244, -154230.07657886465, -115985.0795251226, -0.012, -0.64, 0.782, 192.0, 0.0, 0.0, 0.0, 0.0, 0.0, 0.0, 0.0, 0.0, 0.0, 1.769518927392865E9, 0.0, 2026-01-27 18:32:07.392
118.0, -108087.00121486202, -108744.99186813735, -108266.12809492685, -111820.65896042097, -187500.02235174447, -123888.52225405244, -154229.02604687525, -115985.30304256715, -0.012, -0.636, 0.776, 192.0, 255.0, 160.0, 236.0, 32.0, 24.0, 64.0, 0.0, 0.0, 0.0, 1.76951892739293E9, 0.0, 2026-01-27 18:32:07.392
119.0, -108183.65015788678, -108837.75160762688, -108361.078305373, -111916.10090924513, -187500.02235174447, -123892.09853316529, -154231.37298004306, -115988.94637691336, -0.012, -0.636, 0.776, 192.0, 0.0, 0.0, 0.0, 0.0, 0.0, 0.0, 0.0, 0.0, 0.0, 1.7695189273929453E9, 0.0, 2026-01-27 18:32:07.392
120.0, -108369.95194792176, -109031.34006635429, -108555.62788911199, -112110.1140511172, -187500.02235174447, -123889.55043429739, -154227.61788697456, -115986.53238851219, -0.012, -0.636, 0.776, 192.0, 0.0, 0.0, 0.0, 0.0, 0.0, 0.0, 0.0, 0.0, 0.0, 1.769518927392959E9, 0.0, 2026-01-27 18:32:07.392
121.0, -108383.6312155284, -109052.46246486455, -108575.0292032992, -112129.24714437094, -187500.02235174447, -123889.72924825303, -154226.72381719635, -115987.0241268902, -0.012, -0.636, 0.776, 192.0, 0.0, 0.0, 0.0, 0.0, 0.0, 0.0, 0.0, 0.0, 0.0, 1.7695189278715177E9, 0.0, 2026-01-27 18:32:07.871
122.0, -108218.42947225923, -108886.27724483935, -108407.30171290657, -111961.54200572277, -187500.02235174447, -123888.76812324145, -154224.84627066212, -115986.39827804545, -0.012, -0.636, 0.776, 192.0, 0.0, 0.0, 0.0, 0.0, 0.0, 0.0, 0.0, 0.0, 0.0, 1.7695189278715675E9, 0.0, 2026-01-27 18:32:07.871
123.0, -108097.8641626673, -108757.01710665431, -108278.93564449974, -111833.35475127159, -187500.02235174447, -123888.745771497, -154223.81809041716, -115986.68885072338, -0.012, -0.636, 0.776, 192.0, 0.0, 0.0, 0.0, 0.0, 0.0, 0.0, 0.0, 0.0, 0.0, 1.769518927871604E9, 0.0, 2026-01-27 18:32:07.871
124.0, -108191.49562019059, -108846.91582285355, -108371.36010782245, -111926.56152565022, -187500.02235174447, -123887.38231508523, -154221.18058457144, -115985.3253943116, -0.012, -0.636, 0.776, 192.0, 0.0, 0.0, 0.0, 0.0, 0.0, 0.0, 0.0, 0.0, 0.0, 1.7695189278716345E9, 0.0, 2026-01-27 18:32:07.871
125.0, -108379.16086663734, -109041.44305484809, -108566.35672645054, -112122.58632452326, -187500.02235174447, -123885.81769297335, -154218.4983752368, -115983.93958615538, -0.012, -0.636, 0.776, 192.0, 0.0, 0.0, 0.0, 0.0, 0.0, 0.0, 0.0, 0.0, 0.0, 1.7695189278716648E9, 0.0, 2026-01-27 18:32:07.871
126.0, -108388.7274132642, -109057.73747655601, -108581.22063651332, -112136.0644264298, -187500.02235174447, -123884.11896039474, -154215.68205543543, -115982.53142625469, -0.012, -0.636, 0.776, 192.0, 0.0, 0.0, 0.0, 0.0, 0.0, 0.0, 0.0, 0.0, 0.0, 1.7695189278716958E9, 0.0, 2026-01-27 18:32:07.871
127.0, -108222.65395196129, -108889.49589604091, -108411.74971005318, -111965.05122960225, -187500.02235174447, -123883.47075980554, -154213.93861936792, -115982.15144659895, -0.012, -0.636, 0.776, 192.0, 0.0, 0.0, 0.0, 0.0, 0.0, 0.0, 0.0, 0.0, 0.0, 1.7695189278717253E9, 0.0, 2026-01-27 18:32:07.871
128.0, -108102.20040109163, -108759.63226075558, -108282.7577928016, -111836.9980856178, -187500.02235174447, -123881.34734408229, -154210.63056118853, -115980.22919657579, -0.014, -0.634, 0.776, 192.0, 255.0, 144.0, 236.0, 48.0, 24.0, 64.0, 0.0, 0.0, 0.0, 1.7695189278717415E9, 0.0, 2026-01-27 18:32:07.871
129.0, -108197.10590804886, -108851.07324732225, -108375.96456718023, -111931.09892977464, -187500.02235174447, -123879.67096324814, -154207.68013092043, -115978.64222271947, -0.014, -0.634, 0.776, 192.0, 0.0, 0.0, 0.0, 0.0, 0.0, 0.0, 0.0, 0.0, 0.0, 1.7695189278717587E9, 0.0, 2026-01-27 18:32:07.871
130.0, -108387.45336383025, -109049.0873514518, -108574.69392713236, -112129.47066181549, -187500.02235174447, -123881.86143420475, -154208.68595942092, -115980.877397165, -0.014, -0.634, 0.776, 192.0, 0.0, 0.0, 0.0, 0.0, 0.0, 0.0, 0.0, 0.0, 0.0, 1.769518927871775E9, 0.0, 2026-01-27 18:32:07.871
131.0, -108396.25995114565, -109064.37594465923, -108588.35084299457, -112142.54643232185, -187500.02235174447, -123881.68262024912, -154207.4566134759, -115980.877397165, -0.014, -0.634, 0.776, 192.0, 0.0, 0.0, 0.0, 0.0, 0.0, 0.0, 0.0, 0.0, 0.0, 1.769518927871791E9, 0.0, 2026-01-27 18:32:07.871
132.0, -108228.73362645312, -108894.94972168801, -108417.58351535602, -111971.9802703834, -187500.02235174447, -123880.54268128189, -154205.4449564749, -115980.2739000647, -0.014, -0.634, 0.776, 192.0, 0.0, 0.0, 0.0, 0.0, 0.0, 0.0, 0.0, 0.0, 0.0, 1.7695189278718064E9, 0.0, 2026-01-27 18:32:07.871
133.0, -108112.6163140078, -108770.15993239403, -108293.68779584025, -111848.41982703446, -187500.02235174447, -123881.54850978238, -154205.4449564749, -115981.7267634543, -0.014, -0.634, 0.776, 192.0, 0.0, 0.0, 0.0, 0.0, 0.0, 0.0, 0.0, 0.0, 0.0, 1.769518927871846E9, 0.0, 2026-01-27 18:32:07.871
134.0, -108208.63940818781, -108863.18789281702, -108388.57095105303, -111943.63825841407, -187500.02235174447, -123879.87212894823, -154202.650988418, -115980.34095529807, -0.014, -0.634, 0.776, 192.0, 0.0, 0.0, 0.0, 0.0, 0.0, 0.0, 0.0, 0.0, 0.0, 1.769518927871863E9, 0.0, 2026-01-27 18:32:07.871
135.0, -108394.27064588913, -109056.30696491087, -108581.93589233588, -112137.0702549303, -187500.02235174447, -123877.59225101379, -154199.2535232608, -115978.28459480818, -0.014, -0.634, 0.776, 192.0, 0.0, 0.0, 0.0, 0.0, 0.0, 0.0, 0.0, 0.0, 0.0, 1.769518927871879E9, 0.0, 2026-01-27 18:32:07.871
136.0, -108400.52913433661, -109069.51684588396, -108593.44704073037, -112147.48616784647, -187500.02235174447, -123877.23462310251, -154197.890066849, -115978.21753957482, -0.014, -0.634, 0.776, 192.0, 0.0, 0.0, 0.0, 0.0, 0.0, 0.0, 0.0, 0.0, 0.0, 1.7695189278718953E9, 0.0, 2026-01-27 18:32:07.871
137.0, -108233.11456836636, -108900.26943686837, -108423.08204449202, -111976.71884020792, -187500.02235174447, -123876.56407076884, -154196.28074124822, -115977.74815294125, -0.014, -0.634, 0.776, 192.0, 0.0, 0.0, 0.0, 0.0, 0.0, 0.0, 0.0, 0.0, 0.0, 1.7695189278719113E9, 0.0, 2026-01-27 18:32:07.871
138.0, -108115.47733729809, -108773.98208069589, -108297.7111098422, -111852.42078929197, -187500.02235174447, -123875.69235273509, -154194.42554645843, -115977.3234697966, -0.01, -0.634, 0.774, 192.0, 255.0, 176.0, 236.0, 48.0, 24.0, 48.0, 0.0, 0.0, 0.0, 1.769518927871927E9, 0.0, 2026-01-27 18:32:07.871
139.0, -108212.72977742313, -108868.3958492751, -108393.5330383221, -111949.18149103898, -187500.02235174447, -123874.73122772352, -154192.21272375737, -115976.4741035073, -0.01, -0.634, 0.774, 192.0, 0.0, 0.0, 0.0, 0.0, 0.0, 0.0, 0.0, 0.0, 0.0, 1.7695189278719442E9, 0.0, 2026-01-27 18:32:07.871
140.0, -108398.56218082455, -109061.6937353246, -108587.43442147189, -112142.3229148773, -187500.02235174447, -123873.56893701183, -154189.8434388451, -115975.31181279563, -0.01, -0.634, 0.774, 192.0, 0.0, 0.0, 0.0, 0.0, 0.0, 0.0, 0.0, 0.0, 0.0, 1.76951892787196E9, 0.0, 2026-01-27 18:32:07.871
141.0, -108404.4406896163, -109073.96484303057, -108598.07385183263, -112151.97886848198, -187500.02235174447, -123874.55241376787, -154189.642273145, -115976.49645525176, -0.01, -0.634, 0.774, 192.0, 0.0, 0.0, 0.0, 0.0, 0.0, 0.0, 0.0, 0.0, 0.0, 1.7695189278719757E9, 0.0, 2026-01-27 18:32:07.871
142.0, -108236.28851607902, -108903.37632934765, -108425.9877712712, -111979.93749140948, -187500.02235174447, -123874.68652423461, -154188.7929068557, -115977.07760060759, -0.01, -0.634, 0.774, 192.0, 0.0, 0.0, 0.0, 0.0, 0.0, 0.0, 0.0, 0.0, 0.0, 1.7695189278719916E9, 0.0, 2026-01-27 18:32:07.871
143.0, -108119.05361641094, -108777.53600806427, -108301.08622325496, -111855.59473700462, -187500.02235174447, -123874.28419283441, -154187.36239521057, -115977.03289711868, -0.01, -0.634, 0.774, 192.0, 0.0, 0.0, 0.0, 0.0, 0.0, 0.0, 0.0, 0.0, 0.0, 1.7695189278720074E9, 0.0, 2026-01-27 18:32:07.872
144.0, -108218.36241702586, -108873.08971561071, -108399.07627094701, -111954.43415098598, -187500.02235174447, -123875.24531784598, -154187.16122951047, -115978.12813259699, -0.01, -0.634, 0.774, 192.0, 0.0, 0.0, 0.0, 0.0, 0.0, 0.0, 0.0, 0.0, 0.0, 1.7695189278720257E9, 0.0, 2026-01-27 18:32:07.872
145.0, -108404.10541344946, -109065.82880804883, -108592.30710176314, -112147.50851959092, -187500.02235174447, -123874.64182074569, -154185.26133123177, -115977.63639421898, -0.01, -0.634, 0.774, 192.0, 0.0, 0.0, 0.0, 0.0, 0.0, 0.0, 0.0, 0.0, 0.0, 1.7695189278720448E9, 0.0, 2026-01-27 18:32:07.872
146.0, -108406.31823615055, -109074.65774710868, -108599.54906696666, -112153.47643536048, -187500.02235174447, -123873.52423352293, -154182.91439806396, -115976.69762095185, -0.01, -0.634, 0.774, 192.0, 0.0, 0.0, 0.0, 0.0, 0.0, 0.0, 0.0, 0.0, 0.0, 1.7695189278720608E9, 0.0, 2026-01-27 18:32:07.872
147.0, -108234.5450800115, -108900.31414035728, -108424.46785264825, -111977.54585475277, -187500.02235174447, -123871.84785268878, -154180.3439474516, -115975.33416454008, -0.01, -0.634, 0.774, 192.0, 0.0, 0.0, 0.0, 0.0, 0.0, 0.0, 0.0, 0.0, 0.0, 1.7695189278720884E9, 0.0, 2026-01-27 18:32:07.872
148.0, -108117.6678082547, -108774.09383941816, -108299.47689765417, -111853.27015558127, -187500.02235174447, -123870.55145151037, -154177.95231079488, -115974.23892906177, -0.01, -0.634, 0.778, 192.0, 255.0, 176.0, 236.0, 48.0, 24.0, 80.0, 0.0, 0.0, 0.0, 1.7695189278721044E9, 0.0, 2026-01-27 18:32:07.872
149.0, -108220.46348100466, -108873.76026794438, -108400.842058759, -111955.64114518657, -187500.02235174447, -123873.59128875629, -154179.80750558467, -115977.54698724115, -0.01, -0.634, 0.778, 192.0, 0.0, 0.0, 0.0, 0.0, 0.0, 0.0, 0.0, 0.0, 0.0, 1.7695189278721213E9, 0.0, 2026-01-27 18:32:07.872
150.0, -108405.60298032797, -109067.14756097169, -108593.91642736393, -112148.33553413577, -187500.02235174447, -123873.59128875629, -154178.60051138408, -115977.59169073007, -0.01, -0.634, 0.778, 192.0, 0.0, 0.0, 0.0, 0.0, 0.0, 0.0, 0.0, 0.0, 0.0, 1.7695189278721373E9, 0.0, 2026-01-27 18:32:07.872
151.0, -108407.92756175132, -109076.20001747609, -108601.62777920101, -112155.28692666137, -187500.02235174447, -123875.55824226837, -154179.4945811623, -115979.84921692005, -0.01, -0.634, 0.778, 192.0, 0.0, 0.0, 0.0, 0.0, 0.0, 0.0, 0.0, 0.0, 0.0, 1.7695189278721533E9, 0.0, 2026-01-27 18:32:07.872
152.0, -108236.89201317931, -108902.52696305835, -108427.06065500506, -111981.4797617769, -187500.02235174447, -123875.37942831272, -154178.22053172835, -115980.02803087569, -0.01, -0.634, 0.778, 192.0, 0.0, 0.0, 0.0, 0.0, 0.0, 0.0, 0.0, 0.0, 0.0, 1.7695189278721695E9, 0.0, 2026-01-27 18:32:07.872
153.0, -108121.51230830101, -108778.0724499312, -108302.82965932247, -111857.67344923895, -187500.02235174447, -123874.39595155668, -154176.27592996074, -115979.33512679758, -0.01, -0.634, 0.778, 192.0, 0.0, 0.0, 0.0, 0.0, 0.0, 0.0, 0.0, 0.0, 0.0, 1.7695189278721852E9, 0.0, 2026-01-27 18:32:07.872
154.0, -108219.70352169318, -108873.11206735518, -108399.8362302585, -111954.12122656361, -187500.02235174447, -123872.60781200026, -154173.37020318155, -115977.74815294125, -0.01, -0.634, 0.778, 192.0, 0.0, 0.0, 0.0, 0.0, 0.0, 0.0, 0.0, 0.0, 0.0, 1.769518927872201E9, 0.0, 2026-01-27 18:32:07.872
155.0, -108401.8925907484, -109063.01248824746, -108590.60836918454, -112144.6251445562, -187500.02235174447, -123871.15494861067, -154170.62093861355, -115976.36234478503, -0.01, -0.634, 0.778, 192.0, 0.0, 0.0, 0.0, 0.0, 0.0, 0.0, 0.0, 0.0, 0.0, 1.7695189278722167E9, 0.0, 2026-01-27 18:32:07.872
156.0, -108399.90328549186, -109067.25931969397, -108593.46939247483, -112147.24029865746, -187500.02235174447, -123870.30558232137, -154168.65398510147, -115975.73649594028, -0.01, -0.634, 0.778, 192.0, 0.0, 0.0, 0.0, 0.0, 0.0, 0.0, 0.0, 0.0, 0.0, 1.769518927872233E9, 0.0, 2026-01-27 18:32:07.872
157.0, -108228.30894330847, -108893.00511992039, -108417.67292233383, -111971.60029072766, -187500.02235174447, -123870.39498929918, -154167.7375635788, -115976.16117908493, -0.01, -0.634, 0.778, 192.0, 0.0, 0.0, 0.0, 0.0, 0.0, 0.0, 0.0, 0.0, 0.0, 1.7695189278722486E9, 0.0, 2026-01-27 18:32:07.872
158.0, -108115.41028206472, -108771.14340915006, -108296.48176389716, -111849.67152472396, -187500.02235174447, -123870.26087883246, -154166.55292112267, -115976.36234478503, -0.008, -0.634, 0.778, 192.0, 255.0, 192.0, 236.0, 48.0, 24.0, 80.0, 0.0, 0.0, 0.0, 1.7695189278722644E9, 0.0, 2026-01-27 18:32:07.872
159.0, -108214.9426001242, -108867.23355856343, -108394.80708775605, -111948.6226974276, -187500.02235174447, -123868.69625672058, -154163.80365655466, -115974.90948139543, -0.008, -0.634, 0.778, 192.0, 0.0, 0.0, 0.0, 0.0, 0.0, 0.0, 0.0, 0.0, 0.0, 1.7695189278722813E9, 0.0, 2026-01-27 18:32:07.872
160.0, -108398.27160814664, -109057.82688353382, -108585.75804063774, -112140.0653886873, -187500.02235174447, -123868.60684974276, -154162.48490363182, -115974.88712965098, -0.008, -0.634, 0.778, 192.0, 0.0, 0.0, 0.0, 0.0, 0.0, 0.0, 0.0, 0.0, 0.0, 1.7695189278722973E9, 0.0, 2026-01-27 18:32:07.872
161.0, -108394.42710810031, -109060.77731380193, -108586.80857262714, -112140.17714740959, -187500.02235174447, -123868.20451834257, -154161.07674373113, -115974.86477790652, -0.008, -0.634, 0.778, 192.0, 0.0, 0.0, 0.0, 0.0, 0.0, 0.0, 0.0, 0.0, 0.0, 1.7695189278723133E9, 0.0, 2026-01-27 18:32:07.872
162.0, -108220.35172228239, -108884.73497447192, -108409.53688735211, -111962.30196503425, -187500.02235174447, -123866.37167529723, -154158.34983090757, -115973.45661800583, -0.008, -0.634, 0.778, 192.0, 0.0, 0.0, 0.0, 0.0, 0.0, 0.0, 0.0, 0.0, 0.0, 1.7695189278723388E9, 0.0, 2026-01-27 18:32:07.872
163.0, -108108.25772383902, -108763.90144394654, -108290.20092370521, -111843.83771942112, -187500.02235174447, -123866.21521308605, -154157.07578147363, -115973.5236732392, -0.008, -0.634, 0.778, 192.0, 0.0, 0.0, 0.0, 0.0, 0.0, 0.0, 0.0, 0.0, 0.0, 1.769518927872355E9, 0.0, 2026-01-27 18:32:07.872
164.0, -108207.52182096503, -108859.56691021526, -108388.19097139729, -111942.6771334025, -187500.02235174447, -123863.8906316627, -154153.56655759414, -115971.28849879367, -0.008, -0.634, 0.778, 192.0, 0.0, 0.0, 0.0, 0.0, 0.0, 0.0, 0.0, 0.0, 0.0, 1.7695189278723707E9, 0.0, 2026-01-27 18:32:07.872
165.0, -108390.91788422083, -109050.69667705259, -108579.11957253452, -112132.93518220607, -187500.02235174447, -123864.7847014409, -154153.09717096057, -115972.16021682743, -0.008, -0.634, 0.778, 192.0, 0.0, 0.0, 0.0, 0.0, 0.0, 0.0, 0.0, 0.0, 0.0, 1.7695189278723867E9, 0.0, 2026-01-27 18:32:07.872
166.0, -108386.51459056314, -109053.37888638722, -108579.6783661459, -112132.53285080587, -187500.02235174447, -123865.20938458556, -154152.3372116491, -115972.69665869436, -0.008, -0.634, 0.778, 192.0, 0.0, 0.0, 0.0, 0.0, 0.0, 0.0, 0.0, 0.0, 0.0, 1.7695189278724031E9, 0.0, 2026-01-27 18:32:07.872
167.0, -108216.14959432479, -108880.8010674478, -108405.60298032797, -111958.18924405448, -187500.02235174447, -123867.19868984207, -154153.3877436385, -115975.13299883998, -0.008, -0.634, 0.778, 192.0, 0.0, 0.0, 0.0, 0.0, 0.0, 0.0, 0.0, 0.0, 0.0, 1.7695189278724189E9, 0.0, 2026-01-27 18:32:07.872
168.0, -108103.36269180331, -108759.49815028884, -108284.92591201377, -111838.6521147075, -187500.02235174447, -123865.23173633001, -154150.41496162594, -115973.41191451692, -0.01, -0.632, 0.778, 192.0, 255.0, 176.0, 236.0, 64.0, 24.0, 80.0, 0.0, 0.0, 0.0, 1.7695189278724349E9, 0.0, 2026-01-27 18:32:07.872
169.0, -108205.57721919742, -108859.05282009278, -108386.44753532977, -111941.09015954616, -187500.02235174447, -123864.44942527407, -154148.3809528805, -115972.74136218327, -0.01, -0.632, 0.778, 192.0, 0.0, 0.0, 0.0, 0.0, 0.0, 0.0, 0.0, 0.0, 0.0, 1.7695189278724673E9, 0.0, 2026-01-27 18:32:07.872
170.0, -108384.83820972899, -109046.24867990598, -108573.5763399096, -112127.6154670257, -187500.02235174447, -123862.05778861736, -154144.62585981202, -115970.21561505982, -0.01, -0.632, 0.778, 192.0, 0.0, 0.0, 0.0, 0.0, 0.0, 0.0, 0.0, 0.0, 0.0, 1.769518927872484E9, 0.0, 2026-01-27 18:32:07.872
171.0, -108378.08798290348, -109045.8910519947, -108571.11764801951, -112124.48622280196, -187500.02235174447, -123862.08014036181, -154143.46356910034, -115970.46148424882, -0.01, -0.632, 0.778, 192.0, 0.0, 0.0, 0.0, 0.0, 0.0, 0.0, 0.0, 0.0, 0.0, 1.7695189278725004E9, 0.0, 2026-01-27 18:32:07.872
172.0, -108205.10783256387, -108870.31809929825, -108394.42710810031, -111947.39335148256, -187500.02235174447, -123862.39306478419, -154142.90477548895, -115971.37790577149, -0.01, -0.632, 0.778, 192.0, 0.0, 0.0, 0.0, 0.0, 0.0, 0.0, 0.0, 0.0, 0.0, 1.769518927872517E9, 0.0, 2026-01-27 18:32:07.872
173.0, -108093.84084866535, -108750.19982459543, -108275.22525492017, -111828.37031225805, -187500.02235174447, -123860.5378699944, -154139.99904870975, -115969.7238766818, -0.01, -0.632, 0.778, 192.0, 0.0, 0.0, 0.0, 0.0, 0.0, 0.0, 0.0, 0.0, 0.0, 1.7695189278725338E9, 0.0, 2026-01-27 18:32:07.872
174.0, -108197.4858877046, -108850.80502638877, -108377.37272708092, -111931.21068849691, -187500.02235174447, -123859.57674498281, -154137.9426882199, -115968.98626911477, -0.01, -0.632, 0.778, 192.0, 0.0, 0.0, 0.0, 0.0, 0.0, 0.0, 0.0, 0.0, 0.0, 1.7695189278725505E9, 0.0, 2026-01-27 18:32:07.872
175.0, -108379.51849454863, -109040.28076413642, -108567.16138925093, -112121.28992334486, -187500.02235174447, -123860.1355385942, -154137.3838946085, -115969.7238766818, -0.01, -0.632, 0.778, 192.0, 0.0, 0.0, 0.0, 0.0, 0.0, 0.0, 0.0, 0.0, 0.0, 1.7695189278725672E9, 0.0, 2026-01-27 18:32:07.872
176.0, -108372.99178516767, -109039.7890257584, -108564.81445608313, -112116.81957445378, -187500.02235174447, -123861.49899500597, -154137.56270856413, -115971.31085053812, -0.01, -0.632, 0.778, 192.0, 0.0, 0.0, 0.0, 0.0, 0.0, 0.0, 0.0, 0.0, 0.0, 1.769518927872584E9, 0.0, 2026-01-27 18:32:07.872
177.0, -108198.78228888301, -108862.80791316128, -108386.42518358532, -111938.13972927806, -187500.02235174447, -123861.65545721716, -154136.71334227483, -115971.89199589397, -0.01, -0.632, 0.778, 192.0, 0.0, 0.0, 0.0, 0.0, 0.0, 0.0, 0.0, 0.0, 0.0, 1.7695189278726115E9, 0.0, 2026-01-27 18:32:07.872
178.0, -108089.37049977429, -108744.74599894835, -108269.6596705508, -111822.64826567749, -187500.02235174447, -123860.1355385942, -154134.29935387368, -115970.7744086712, -0.01, -0.632, 0.778, 192.0, 255.0, 176.0, 236.0, 64.0, 24.0, 80.0, 0.0, 0.0, 0.0, 1.7695189278726285E9, 0.0, 2026-01-27 18:32:07.872
179.0, -108195.27306500352, -108847.78754088731, -108374.95873867975, -111928.68494137347, -187500.02235174447, -123860.04613161639, -154132.95824920633, -115970.66264994892, -0.01, -0.632, 0.778, 192.0, 0.0, 0.0, 0.0, 0.0, 0.0, 0.0, 0.0, 0.0, 0.0, 1.769518927872646E9, 0.0, 2026-01-27 18:32:07.872
180.0, -108375.36107007993, -109035.74336001198, -108562.57928163759, -112115.92550467557, -187500.02235174447, -123859.01795137144, -154130.65601952744, -115969.74622842626, -0.01, -0.632, 0.778, 192.0, 0.0, 0.0, 0.0, 0.0, 0.0, 0.0, 0.0, 0.0, 0.0, 1.7695189278726628E9, 0.0, 2026-01-27 18:32:07.872
181.0, -108364.6322327414, -109031.5859355433, -108556.3207931901, -112108.57178074979, -187500.02235174447, -123858.10152984876, -154128.64436252648, -115969.16508307042, -0.01, -0.632, 0.778, 192.0, 0.0, 0.0, 0.0, 0.0, 0.0, 0.0, 0.0, 0.0, 0.0, 1.7695189278726797E9, 0.0, 2026-01-27 18:32:07.872
182.0, -108190.02040505654, -108854.33660201271, -108378.33385209249, -111930.78600535226, -187500.02235174447, -123858.81678567134, -154128.5326038042, -115970.32737378209, -0.01, -0.632, 0.778, 192.0, 0.0, 0.0, 0.0, 0.0, 0.0, 0.0, 0.0, 0.0, 0.0, 1.7695189278726964E9, 0.0, 2026-01-27 18:32:07.872
183.0, -108085.74951717253, -108741.46029251341, -108266.59748156041, -111819.87664936503, -187500.02235174447, -123860.51551824994, -154129.29256311568, -115972.49549299426, -0.01, -0.632, 0.778, 192.0, 0.0, 0.0, 0.0, 0.0, 0.0, 0.0, 0.0, 0.0, 0.0, 1.7695189278727129E9, 0.0, 2026-01-27 18:32:07.872
184.0, -108189.79688761198, -108842.84780536269, -108369.6837269883, -111923.47698491538, -187500.02235174447, -123858.41445427114, -154125.9845049363, -115970.43913250437, -0.01, -0.632, 0.778, 192.0, 0.0, 0.0, 0.0, 0.0, 0.0, 0.0, 0.0, 0.0, 0.0, 1.7695189278727298E9, 0.0, 2026-01-27 18:32:07.872
185.0, -108370.82366595551, -109031.42947333211, -108558.77948508019, -112112.14805986262, -187500.02235174447, -123858.4368060156, -154124.8222142246, -115970.52853948218, -0.01, -0.632, 0.778, 192.0, 0.0, 0.0, 0.0, 0.0, 0.0, 0.0, 0.0, 0.0, 0.0, 1.7695189278727465E9, 0.0, 2026-01-27 18:32:07.872
186.0, -108360.31834606151, -109026.84736571877, -108552.99038326627, -112105.28607431485, -187500.02235174447, -123858.30269554886, -154123.4811095573, -115970.64029820447, -0.01, -0.632, 0.778, 192.0, 0.0, 0.0, 0.0, 0.0, 0.0, 0.0, 0.0, 0.0, 0.0, 1.7695189278727632E9, 0.0, 2026-01-27 18:32:07.872
187.0, -108183.71721312014, -108847.56402344276, -108372.41063981183, -111924.14753724904, -187500.02235174447, -123857.25216355946, -154121.4247490674, -115969.88033889298, -0.01, -0.632, 0.778, 192.0, 0.0, 0.0, 0.0, 0.0, 0.0, 0.0, 0.0, 0.0, 0.0, 1.76951892787278E9, 0.0, 2026-01-27 18:32:07.872
188.0, -108076.63000543477, -108732.38548426455, -108258.39439134531, -111811.40533821647, -187500.02235174447, -123854.50289899146, -154117.51319378772, -115967.37694351398, -0.008, -0.634, 0.782, 192.0, 255.0, 192.0, 236.0, 48.0, 24.0, 112.0, 0.0, 0.0, 0.0, 1.7695189278727968E9, 0.0, 2026-01-27 18:32:07.872
189.0, -108183.27017823103, -108836.47755819293, -108364.2299013412, -111917.41966216799, -187500.02235174447, -123853.54177397989, -154115.21096410882, -115966.52757722468, -0.008, -0.634, 0.782, 192.0, 0.0, 0.0, 0.0, 0.0, 0.0, 0.0, 0.0, 0.0, 0.0, 1.7695189278728142E9, 0.0, 2026-01-27 18:32:07.872
190.0, -108365.1239711194, -109025.93094419611, -108553.50447338873, -112105.84486792624, -187500.02235174447, -123854.90523039165, -154115.3227228311, -115967.93573712537, -0.008, -0.634, 0.782, 192.0, 0.0, 0.0, 0.0, 0.0, 0.0, 0.0, 0.0, 0.0, 0.0, 1.7695189278728306E9, 0.0, 2026-01-27 18:32:07.872
191.0, -108352.74110469117, -109019.22542085951, -108544.85434828453, -112096.59124572173, -187500.02235174447, -123855.0840443473, -154114.54041177518, -115968.38277201448, -0.008, -0.634, 0.782, 192.0, 0.0, 0.0, 0.0, 0.0, 0.0, 0.0, 0.0, 0.0, 0.0, 1.769518927872857E9, 0.0, 2026-01-27 18:32:07.872
192.0, -108174.66475661573, -108837.66220064905, -108362.41941004031, -111913.93279003297, -187500.02235174447, -123853.25120130196, -154111.79114720717, -115966.9746121138, -0.008, -0.634, 0.782, 192.0, 0.0, 0.0, 0.0, 0.0, 0.0, 0.0, 0.0, 0.0, 0.0, 1.7695189278728745E9, 0.0, 2026-01-27 18:32:07.872
193.0, -108068.65043266422, -108722.72953065987, -108249.11841739637, -111801.88349507851, -187500.02235174447, -123850.97132336753, -154108.43838553887, -115965.00765860172, -0.008, -0.634, 0.782, 192.0, 0.0, 0.0, 0.0, 0.0, 0.0, 0.0, 0.0, 0.0, 0.0, 1.769518927872891E9, 0.0, 2026-01-27 18:32:07.872
194.0, -108176.6317101278, -108827.87213657763, -108355.75859019264, -111908.74718531933, -187500.02235174447, -123851.03837860089, -154107.2760948272, -115965.20882430182, -0.008, -0.634, 0.782, 192.0, 0.0, 0.0, 0.0, 0.0, 0.0, 0.0, 0.0, 0.0, 0.0, 1.7695189278729076E9, 0.0, 2026-01-27 18:32:07.872
195.0, -108355.37861053689, -109014.2856853349, -108541.94862150535, -112095.38425152114, -187500.02235174447, -123850.2784192894, -154105.26443782623, -115964.4712167348, -0.008, -0.634, 0.782, 192.0, 0.0, 0.0, 0.0, 0.0, 0.0, 0.0, 0.0, 0.0, 0.0, 1.769518927872924E9, 0.0, 2026-01-27 18:32:07.872
196.0, -108343.28631678657, -109008.54128700988, -108534.63960106845, -112087.20351305051, -187500.02235174447, -123851.46306174554, -154105.26443782623, -115965.78996965766, -0.008, -0.634, 0.782, 192.0, 0.0, 0.0, 0.0, 0.0, 0.0, 0.0, 0.0, 0.0, 0.0, 1.769518927872941E9, 0.0, 2026-01-27 18:32:07.872
197.0, -108168.11569549033, -108831.04608429028, -108355.78094193709, -111907.54019111875, -187500.02235174447, -123852.26772454593, -154105.0185686372, -115966.84050164706, -0.008, -0.634, 0.782, 192.0, 0.0, 0.0, 0.0, 0.0, 0.0, 0.0, 0.0, 0.0, 0.0, 1.769518927872958E9, 0.0, 2026-01-27 18:32:07.872
198.0, -108064.40360121771, -108718.54975444672, -108244.11162663838, -111796.72024210934, -187500.02235174447, -123850.61369545624, -154102.29165581366, -115965.43234174637, -0.016, -0.638, 0.782, 192.0, 255.0, 128.0, 236.0, 16.0, 24.0, 112.0, 0.0, 0.0, 0.0, 1.7695189278729744E9, 0.0, 2026-01-27 18:32:07.872
199.0, -108171.51316064753, -108822.97710454192, -108350.46122675673, -111903.7180428169, -187500.02235174447, -123850.14430882268, -154100.61527497953, -115965.0747138351, -0.016, -0.638, 0.782, 192.0, 0.0, 0.0, 0.0, 0.0, 0.0, 0.0, 0.0, 0.0, 0.0, 1.769518927872992E9, 0.0, 2026-01-27 18:32:07.872
200.0, -108350.14830233435, -109010.3294265663, -108537.85825227002, -112090.84684739672, -187500.02235174447, -123851.86539314574, -154100.9729028908, -115966.84050164706, -0.016, -0.638, 0.782, 192.0, 0.0, 0.0, 0.0, 0.0, 0.0, 0.0, 0.0, 0.0, 0.0, 1.7695189278730087E9, 0.0, 2026-01-27 18:32:07.873
201.0, -108334.94911610475, -109002.46161251803, -108528.09053994305, -112080.67680366956, -187500.02235174447, -123851.84304140128, -154099.83296392357, -115967.10872258052, -0.016, -0.638, 0.782, 192.0, 0.0, 0.0, 0.0, 0.0, 0.0, 0.0, 0.0, 0.0, 0.0, 1.769518927873031E9, 0.0, 2026-01-27 18:32:07.873
202.0, -108155.46460812863, -108820.3395986962, -108345.11915983191, -111897.50425785831, -187500.02235174447, -123848.26676228843, -154095.38496677697, -115963.89007137896, -0.016, -0.638, 0.782, 192.0, 0.0, 0.0, 0.0, 0.0, 0.0, 0.0, 0.0, 0.0, 0.0, 1.7695189278730533E9, 0.0, 2026-01-27 18:32:07.873
203.0, -108045.33756319733, -108701.36126296059, -108227.1913560857, -111780.78344831271, -187500.02235174447, -123846.70214017657, -154092.76981267572, -115962.5713184561, -0.016, -0.638, 0.782, 192.0, 0.0, 0.0, 0.0, 0.0, 0.0, 0.0, 0.0, 0.0, 0.0, 1.7695189278730705E9, 0.0, 2026-01-27 18:32:07.873
204.0, -108138.38787536477, -108791.46114485993, -108318.38647346337, -111871.39742033451, -187500.02235174447, -123847.86443088824, -154092.81451616462, -115964.0241818457, -0.016, -0.638, 0.782, 192.0, 0.0, 0.0, 0.0, 0.0, 0.0, 0.0, 0.0, 0.0, 0.0, 1.7695189278730876E9, 0.0, 2026-01-27 18:32:07.873
205.0, -108307.41176693581, -108967.97287082349, -108495.63580699395, -112047.93149804253, -187500.02235174447, -123846.99271285448, -154090.60169346354, -115963.24187078976, -0.016, -0.638, 0.782, 192.0, 0.0, 0.0, 0.0, 0.0, 0.0, 0.0, 0.0, 0.0, 0.0, 1.7695189278731048E9, 0.0, 2026-01-27 18:32:07.873
206.0, -108308.35054020293, -108975.39364998265, -108501.58137101906, -112053.40767543408, -187500.02235174447, -123848.1326518217, -154090.64639695245, -115964.6723824349, -0.016, -0.638, 0.782, 192.0, 0.0, 0.0, 0.0, 0.0, 0.0, 0.0, 0.0, 0.0, 0.0, 1.7695189278731334E9, 0.0, 2026-01-27 18:32:07.873
207.0, -108148.53556734748, -108813.14233698159, -108338.01130509512, -111889.79290602123, -187500.02235174447, -123848.75850066644, -154090.37817601897, -115965.67821093538, -0.016, -0.638, 0.782, 192.0, 0.0, 0.0, 0.0, 0.0, 0.0, 0.0, 0.0, 0.0, 0.0, 1.7695189278731508E9, 0.0, 2026-01-27 18:32:07.873
208.0, -108046.16457774218, -108702.2553327388, -108228.46540551966, -111781.45400064636, -187500.02235174447, -123846.72449192102, -154087.20422830633, -115963.89007137896, -0.01, -0.634, 0.784, 192.0, 255.0, 176.0, 236.0, 48.0, 24.0, 128.0, 0.0, 0.0, 0.0, 1.7695189278731692E9, 0.0, 2026-01-27 18:32:07.873
209.0, -108139.39370386527, -108792.26580766033, -108319.90639208633, -111872.38089709055, -187500.02235174447, -123846.07629133182, -154085.48314398326, -115963.39833300095, -0.01, -0.634, 0.784, 192.0, 0.0, 0.0, 0.0, 0.0, 0.0, 0.0, 0.0, 0.0, 0.0, 1.769518927873196E9, 0.0, 2026-01-27 18:32:07.873
210.0, -108311.97152280468, -108972.89025460366, -108500.39672856293, -112051.46307366647, -187500.02235174447, -123845.22692504252, -154083.35972826002, -115962.5713184561, -0.01, -0.634, 0.784, 192.0, 0.0, 0.0, 0.0, 0.0, 0.0, 0.0, 0.0, 0.0, 0.0, 1.7695189278732207E9, 0.0, 2026-01-27 18:32:07.873
211.0, -108310.36219720391, -108977.85234187274, -108503.63773150895, -112054.81583533477, -187500.02235174447, -123845.85277388727, -154083.00210034873, -115963.51009172322, -0.01, -0.634, 0.784, 192.0, 0.0, 0.0, 0.0, 0.0, 0.0, 0.0, 0.0, 0.0, 0.0, 1.7695189278732462E9, 0.0, 2026-01-27 18:32:07.873
212.0, -108149.45198887015, -108813.79053757079, -108338.88302312887, -111889.97171997688, -187500.02235174447, -123842.09768081877, -154078.2188270353, -115960.13497831047, -0.01, -0.634, 0.784, 192.0, 0.0, 0.0, 0.0, 0.0, 0.0, 0.0, 0.0, 0.0, 0.0, 1.7695189278732727E9, 0.0, 2026-01-27 18:32:07.873
213.0, -108049.11500801028, -108704.60226590661, -108230.298248565, -111782.68334659141, -187500.02235174447, -123842.12003256322, -154077.123591557, -115960.38084749947, -0.01, -0.634, 0.784, 192.0, 0.0, 0.0, 0.0, 0.0, 0.0, 0.0, 0.0, 0.0, 0.0, 1.7695189278732927E9, 0.0, 2026-01-27 18:32:07.873
214.0, -108146.25568941304, -108798.94897925247, -108325.98606657816, -111878.88525472705, -187500.02235174447, -123842.38825349668, -154076.3636322455, -115960.85023413305, -0.01, -0.634, 0.784, 192.0, 0.0, 0.0, 0.0, 0.0, 0.0, 0.0, 0.0, 0.0, 0.0, 1.7695189278733096E9, 0.0, 2026-01-27 18:32:07.873
215.0, -108316.41951995129, -108977.472362217, -108504.62120826497, -112057.20747199148, -187500.02235174447, -123840.26483777343, -154073.0779258106, -115958.86092887651, -0.01, -0.634, 0.784, 192.0, 0.0, 0.0, 0.0, 0.0, 0.0, 0.0, 0.0, 0.0, 0.0, 1.7695189278733263E9, 0.0, 2026-01-27 18:32:07.873
216.0, -108318.1182525299, -108985.85426638775, -108511.50554555721, -112063.68947788353, -187500.02235174447, -123839.92956160661, -154071.625062421, -115958.7715218987, -0.01, -0.634, 0.784, 192.0, 0.0, 0.0, 0.0, 0.0, 0.0, 0.0, 0.0, 0.0, 0.0, 1.7695189278733428E9, 0.0, 2026-01-27 18:32:07.873
217.0, -108161.25370994255, -108825.81577608774, -108349.99184012317, -111901.81814453819, -187500.02235174447, -123839.14725055067, -154069.83692286455, -115958.23508003177, -0.01, -0.634, 0.784, 192.0, 0.0, 0.0, 0.0, 0.0, 0.0, 0.0, 0.0, 0.0, 0.0, 1.7695189278733594E9, 0.0, 2026-01-27 18:32:07.873
218.0, -108065.23061576256, -108720.80728063671, -108245.85506270589, -111797.65901537646, -187500.02235174447, -123838.56610519483, -154068.09348679704, -115957.87745212049, -0.006, -0.636, 0.782, 192.0, 255.0, 208.0, 236.0, 32.0, 24.0, 112.0, 0.0, 0.0, 0.0, 1.769518927873376E9, 0.0, 2026-01-27 18:32:07.873
219.0, -108163.60064311036, -108816.62920911661, -108343.06279934202, -111895.87258051308, -187500.02235174447, -123838.47669821701, -154066.7747338742, -115957.9668590983, -0.006, -0.636, 0.782, 192.0, 0.0, 0.0, 0.0, 0.0, 0.0, 0.0, 0.0, 0.0, 0.0, 1.769518927873394E9, 0.0, 2026-01-27 18:32:07.873
220.0, -108337.60897369492, -108999.08649910528, -108525.40833060842, -112078.44162922402, -187500.02235174447, -123837.78379413889, -154064.9642425733, -115957.38571374246, -0.006, -0.636, 0.782, 192.0, 0.0, 0.0, 0.0, 0.0, 0.0, 0.0, 0.0, 0.0, 0.0, 1.7695189278734107E9, 0.0, 2026-01-27 18:32:07.873
221.0, -108339.77709290708, -109007.80367944285, -108532.7620545342, -112084.70011767151, -187500.02235174447, -123838.61080868373, -154064.65131815092, -115958.43624573186, -0.006, -0.636, 0.782, 192.0, 0.0, 0.0, 0.0, 0.0, 0.0, 0.0, 0.0, 0.0, 0.0, 1.7695189278734426E9, 0.0, 2026-01-27 18:32:07.873
222.0, -108183.1360677643, -108848.3463344987, -108372.29888108956, -111923.99107503785, -187500.02235174447, -123839.03549182838, -154064.13722802844, -115959.19620504335, -0.006, -0.636, 0.782, 192.0, 0.0, 0.0, 0.0, 0.0, 0.0, 0.0, 0.0, 0.0, 0.0, 1.7695189278734598E9, 0.0, 2026-01-27 18:32:07.873
223.0, -108090.57749397487, -108746.91411816051, -108272.09601069642, -111824.88344012303, -187500.02235174447, -123839.10254706176, -154063.15375127242, -115959.50912946572, -0.006, -0.636, 0.782, 192.0, 0.0, 0.0, 0.0, 0.0, 0.0, 0.0, 0.0, 0.0, 0.0, 1.7695189278734765E9, 0.0, 2026-01-27 18:32:07.873
224.0, -108188.12050677784, -108841.57375592874, -108368.72260197671, -111921.37592093658, -187500.02235174447, -123836.46504121603, -154059.39865820392, -115957.05043757564, -0.006, -0.636, 0.782, 192.0, 0.0, 0.0, 0.0, 0.0, 0.0, 0.0, 0.0, 0.0, 0.0, 1.7695189278734937E9, 0.0, 2026-01-27 18:32:07.873
225.0, -108363.6264042409, -109025.19333662908, -108552.61040361052, -112104.10143185871, -187500.02235174447, -123837.29205576087, -154059.15278901492, -115958.03391433167, -0.006, -0.636, 0.782, 192.0, 0.0, 0.0, 0.0, 0.0, 0.0, 0.0, 0.0, 0.0, 0.0, 1.76951892787351E9, 0.0, 2026-01-27 18:32:07.873
226.0, -108358.68666871628, -109027.47321456352, -108552.78921756617, -112103.67674871406, -187500.02235174447, -123835.66037841563, -154056.2694139802, -115956.62575443099, -0.006, -0.636, 0.782, 192.0, 0.0, 0.0, 0.0, 0.0, 0.0, 0.0, 0.0, 0.0, 0.0, 1.769518927873527E9, 0.0, 2026-01-27 18:32:07.873
227.0, -108201.10687030636, -108867.32296554124, -108391.70019527678, -111943.05711305822, -187500.02235174447, -123835.19099178207, -154054.72714361278, -115956.49164396425, -0.006, -0.636, 0.782, 192.0, 0.0, 0.0, 0.0, 0.0, 0.0, 0.0, 0.0, 0.0, 0.0, 1.769518927873544E9, 0.0, 2026-01-27 18:32:07.873
228.0, -108106.08960462686, -108763.00737416833, -108288.81511554899, -111840.5520129862, -187500.02235174447, -123835.77213713792, -154054.28010872367, -115957.2739550202, -0.004, -0.636, 0.784, 192.0, 255.0, 224.0, 236.0, 32.0, 24.0, 128.0, 0.0, 0.0, 0.0, 1.769518927873561E9, 0.0, 2026-01-27 18:32:07.873
229.0, -108208.88527737682, -108862.94202362801, -108390.53790456509, -111942.83359561367, -187500.02235174447, -123837.91790460562, -154055.17417850188, -115959.46442597681, -0.004, -0.636, 0.784, 192.0, 0.0, 0.0, 0.0, 0.0, 0.0, 0.0, 0.0, 0.0, 0.0, 1.7695189278735788E9, 0.0, 2026-01-27 18:32:07.873
230.0, -108375.36107007993, -109036.81624374584, -108564.70269736084, -112117.69129248755, -187500.02235174447, -123838.29788426137, -154054.2577569792, -115959.88910912146, -0.004, -0.636, 0.784, 192.0, 0.0, 0.0, 0.0, 0.0, 0.0, 0.0, 0.0, 0.0, 0.0, 1.7695189278735962E9, 0.0, 2026-01-27 18:32:07.873
231.0, -108361.99472689566, -109028.72491225302, -108555.20320596734, -112106.73893770445, -187500.02235174447, -123835.54861969336, -154050.34620169952, -115957.4751207203, -0.004, -0.636, 0.784, 192.0, 0.0, 0.0, 0.0, 0.0, 0.0, 0.0, 0.0, 0.0, 0.0, 1.769518927873613E9, 0.0, 2026-01-27 18:32:07.873
232.0, -108196.03302431501, -108858.98576485942, -108384.12295390642, -111935.3234094767, -187500.02235174447, -123836.95677959405, -154050.6591261219, -115959.19620504335, -0.004, -0.636, 0.784, 192.0, 0.0, 0.0, 0.0, 0.0, 0.0, 0.0, 0.0, 0.0, 0.0, 1.76951892787363E9, 0.0, 2026-01-27 18:32:07.873
233.0, -108099.9652266461, -108753.64199324156, -108279.42738287777, -111831.92423962645, -187500.02235174447, -123837.1802970386, -154049.8991668104, -115959.64323993245, -0.004, -0.636, 0.784, 192.0, 0.0, 0.0, 0.0, 0.0, 0.0, 0.0, 0.0, 0.0, 0.0, 1.769518927873647E9, 0.0, 2026-01-27 18:32:07.873
234.0, -108196.81533537095, -108847.20639553147, -108374.93638693528, -111928.41672044, -187500.02235174447, -123835.19099178207, -154046.76992258668, -115957.87745212049, -0.004, -0.636, 0.784, 192.0, 0.0, 0.0, 0.0, 0.0, 0.0, 0.0, 0.0, 0.0, 0.0, 1.769518927873665E9, 0.0, 2026-01-27 18:32:07.873
235.0, -108362.35235480695, -109019.71715923752, -108547.80477855263, -112100.61455972369, -187500.02235174447, -123833.73812839248, -154043.9983062742, -115956.35753349752, -0.004, -0.636, 0.784, 192.0, 0.0, 0.0, 0.0, 0.0, 0.0, 0.0, 0.0, 0.0, 0.0, 1.769518927873749E9, 0.0, 2026-01-27 18:32:07.873
236.0, -108349.67891570079, -109012.20697310055, -108538.30528715912, -112089.34928051822, -187500.02235174447, -123834.58749468178, -154043.73008534077, -115957.5198242092, -0.004, -0.636, 0.784, 192.0, 0.0, 0.0, 0.0, 0.0, 0.0, 0.0, 0.0, 0.0, 0.0, 1.769518927873767E9, 0.0, 2026-01-27 18:32:07.873
237.0, -108181.59379739688, -108840.52322393934, -108365.83922694197, -111917.44201391246, -187500.02235174447, -123833.91694234812, -154042.0537045066, -115957.13984455346, -0.004, -0.636, 0.784, 192.0, 0.0, 0.0, 0.0, 0.0, 0.0, 0.0, 0.0, 0.0, 0.0, 1.769518927873784E9, 0.0, 2026-01-27 18:32:07.873
238.0, -108083.22377004908, -108732.83251915367, -108259.04259193451, -111811.24887600528, -187500.02235174447, -123832.39702372516, -154039.32679168307, -115955.75403639724, -0.006, -0.634, 0.782, 192.0, 255.0, 208.0, 236.0, 48.0, 24.0, 112.0, 0.0, 0.0, 0.0, 1.7695189278738008E9, 0.0, 2026-01-27 18:32:07.873
239.0, -108178.55396015097, -108824.76524409834, -108352.4728837577, -111903.80744979471, -187500.02235174447, -123829.55835217935, -154035.3034776811, -115952.98242008478, -0.006, -0.634, 0.782, 192.0, 0.0, 0.0, 0.0, 0.0, 0.0, 0.0, 0.0, 0.0, 0.0, 1.7695189278738189E9, 0.0, 2026-01-27 18:32:07.873
240.0, -108341.74404641916, -108995.26435080342, -108522.68141778487, -112073.43483846604, -187500.02235174447, -123829.15602077915, -154033.76120731368, -115952.73655089576, -0.006, -0.634, 0.782, 192.0, 0.0, 0.0, 0.0, 0.0, 0.0, 0.0, 0.0, 0.0, 0.0, 1.769518927873835E9, 0.0, 2026-01-27 18:32:07.873
241.0, -108322.1192147874, -108981.00393784094, -108506.54345828814, -112056.62632663564, -187500.02235174447, -123827.79256436737, -154031.23546019025, -115951.59661192854, -0.006, -0.634, 0.782, 192.0, 0.0, 0.0, 0.0, 0.0, 0.0, 0.0, 0.0, 0.0, 0.0, 1.7695189283530445E9, 0.0, 2026-01-27 18:32:08.353
242.0, -108150.0778377149, -108805.07335723321, -108329.49529045765, -111879.46640008288, -187500.02235174447, -123826.40675621114, -154028.91087876688, -115950.8143008726, -0.006, -0.634, 0.782, 192.0, 0.0, 0.0, 0.0, 0.0, 0.0, 0.0, 0.0, 0.0, 0.0, 1.7695189283530977E9, 0.0, 2026-01-27 18:32:08.353
243.0, -108049.94202255513, -108695.68391986894, -108221.15638508278, -111772.28978541968, -187500.02235174447, -123826.69732888906, -154027.97210549976, -115951.32839099508, -0.006, -0.634, 0.782, 192.0, 0.0, 0.0, 0.0, 0.0, 0.0, 0.0, 0.0, 0.0, 0.0, 1.7695189283531227E9, 0.0, 2026-01-27 18:32:08.353
244.0, -108150.0778377149, -108793.33869139418, -108320.64399965334, -111872.6044145351, -187500.02235174447, -123828.9772068235, -154029.17909970036, -115953.7200276518, -0.006, -0.634, 0.782, 192.0, 0.0, 0.0, 0.0, 0.0, 0.0, 0.0, 0.0, 0.0, 0.0, 1.7695189283531485E9, 0.0, 2026-01-27 18:32:08.353
245.0, -108307.30000821353, -108958.40632419662, -108485.62222547797, -112037.78380605982, -187500.02235174447, -123826.80908761134, -154025.8039862876, -115951.618963673, -0.006, -0.634, 0.782, 192.0, 0.0, 0.0, 0.0, 0.0, 0.0, 0.0, 0.0, 0.0, 0.0, 1.7695189283531706E9, 0.0, 2026-01-27 18:32:08.353
246.0, -108286.08820272544, -108943.1177309892, -108468.14316131391, -112019.09774769518, -187500.02235174447, -123824.730375377, -154022.49592810823, -115949.85317586103, -0.006, -0.634, 0.782, 192.0, 0.0, 0.0, 0.0, 0.0, 0.0, 0.0, 0.0, 0.0, 0.0, 1.7695189283531964E9, 0.0, 2026-01-27 18:32:08.353
247.0, -108111.90105818523, -108765.91310094752, -108289.66448183829, -111839.27796355225, -187500.02235174447, -123823.05399454285, -154019.85842226248, -115948.64618166044, -0.006, -0.634, 0.782, 192.0, 0.0, 0.0, 0.0, 0.0, 0.0, 0.0, 0.0, 0.0, 0.0, 1.7695189283532183E9, 0.0, 2026-01-27 18:32:08.353
248.0, -108016.41440587216, -108662.8492072641, -108187.62876839981, -111738.20337512535, -187500.02235174447, -123822.226979998, -154018.09263445053, -115948.15444328243, -0.016, -0.636, 0.786, 192.0, 255.0, 128.0, 236.0, 32.0, 24.0, 144.0, 0.0, 0.0, 0.0, 1.7695189283532405E9, 0.0, 2026-01-27 18:32:08.353
249.0, -108115.43263380918, -108759.98988866687, -108286.24466493663, -111837.73569318482, -187500.02235174447, -123821.3776137087, -154016.05862570507, -115947.52859443768, -0.016, -0.636, 0.786, 192.0, 0.0, 0.0, 0.0, 0.0, 0.0, 0.0, 0.0, 0.0, 0.0, 1.769518928353263E9, 0.0, 2026-01-27 18:32:08.353
250.0, -108280.58967358943, -108933.59588785123, -108460.20829203229, -112011.49815458037, -187500.02235174447, -123823.61278815423, -154017.13150943894, -115949.87552760549, -0.016, -0.636, 0.786, 192.0, 0.0, 0.0, 0.0, 0.0, 0.0, 0.0, 0.0, 0.0, 0.0, 1.769518928353305E9, 0.0, 2026-01-27 18:32:08.353
251.0, -108262.39535360281, -108921.70475980101, -108446.95370757028, -111997.59536952918, -187500.02235174447, -123826.18323876659, -154018.69613155082, -115952.78125438468, -0.016, -0.636, 0.786, 192.0, 0.0, 0.0, 0.0, 0.0, 0.0, 0.0, 0.0, 0.0, 0.0, 1.76951892835332E9, 0.0, 2026-01-27 18:32:08.353
252.0, -108090.68925269715, -108746.4670832714, -108270.66549905128, -111820.45779472087, -187500.02235174447, -123823.16575326512, -154014.62811405995, -115950.18845202785, -0.016, -0.636, 0.786, 192.0, 0.0, 0.0, 0.0, 0.0, 0.0, 0.0, 0.0, 0.0, 0.0, 1.7695189283533347E9, 0.0, 2026-01-27 18:32:08.353
253.0, -107998.91298996366, -108645.97364020035, -108171.26729145853, -111721.99836039524, -187500.02235174447, -123821.19879975305, -154011.4988698362, -115948.42266421589, -0.016, -0.636, 0.786, 192.0, 0.0, 0.0, 0.0, 0.0, 0.0, 0.0, 0.0, 0.0, 0.0, 1.7695189283533487E9, 0.0, 2026-01-27 18:32:08.353
254.0, -108105.21788659309, -108750.8703769291, -108278.13098169936, -111829.5996582031, -187500.02235174447, -123820.3270817193, -154009.48721283523, -115947.77446362669, -0.016, -0.636, 0.786, 192.0, 0.0, 0.0, 0.0, 0.0, 0.0, 0.0, 0.0, 0.0, 0.0, 1.7695189283533633E9, 0.0, 2026-01-27 18:32:08.353
255.0, -108271.76073452958, -108926.10805345871, -108453.43571346233, -112004.70322426596, -187500.02235174447, -123820.3270817193, -154008.16845991235, -115947.84151886005, -0.016, -0.636, 0.786, 192.0, 0.0, 0.0, 0.0, 0.0, 0.0, 0.0, 0.0, 0.0, 0.0, 1.7695189283533776E9, 0.0, 2026-01-27 18:32:08.353
0.0, -108253.9016907098, -108914.66396029759, -108440.02466678915, -111990.86749444813, -187500.02235174447, -123820.3270817193, -154006.98381745623, -115947.93092583788, -0.016, -0.636, 0.786, 192.0, 0.0, 0.0, 0.0, 0.0, 0.0, 0.0, 0.0, 0.0, 0.0, 1.769518928353392E9, 0.0, 2026-01-27 18:32:08.353
1.0, -108090.04105210795, -108748.07640887218, -108272.76656303008, -111823.18470754442, -187500.02235174447, -123822.226979998, -154008.0119977012, -115950.21080377231, -0.016, -0.636, 0.786, 192.0, 0.0, 0.0, 0.0, 0.0, 0.0, 0.0, 0.0, 0.0, 0.0, 1.769518928353406E9, 0.0, 2026-01-27 18:32:08.353
2.0, -108005.52910632243, -108655.85311124958, -108181.86201833034, -111733.15188087845, -187500.02235174447, -123821.48937243098, -154006.2462098892, -115949.98728632776, -0.014, -0.634, 0.792, 192.0, 255.0, 144.0, 236.0, 48.0, 24.0, 192.0, 0.0, 0.0, 0.0, 1.7695189283534205E9, 0.0, 2026-01-27 18:32:08.353
3.0, -108116.25964835403, -108765.2201968694, -108292.77137431758, -111845.17882408843, -187500.02235174447, -123817.80133459585, -154001.32882610903, -115946.52276593719, -0.014, -0.634, 0.792, 192.0, 0.0, 0.0, 0.0, 0.0, 0.0, 0.0, 0.0, 0.0, 0.0, 1.7695189283534358E9, 0.0, 2026-01-27 18:32:08.353
4.0, -108282.26605442358, -108939.4073414096, -108467.13733281344, -112018.80717501727, -187500.02235174447, -123815.83438108378, -153998.1995818853, -115944.62286765849, -0.014, -0.634, 0.792, 192.0, 0.0, 0.0, 0.0, 0.0, 0.0, 0.0, 0.0, 0.0, 0.0, 1.76951892835345E9, 0.0, 2026-01-27 18:32:08.353
5.0, -108263.53529257004, -108926.66684707008, -108453.48041695124, -112004.16678239904, -187500.02235174447, -123815.45440142804, -153996.63495977342, -115944.4664054473, -0.014, -0.634, 0.792, 192.0, 0.0, 0.0, 0.0, 0.0, 0.0, 0.0, 0.0, 0.0, 0.0, 1.7695189283534644E9, 0.0, 2026-01-27 18:32:08.353
6.0, -108094.511400999, -108754.11137987512, -108280.09793521142, -111831.32074252615, -187500.02235174447, -123814.40386943864, -153994.66800626137, -115943.84055660255, -0.014, -0.634, 0.792, 192.0, 0.0, 0.0, 0.0, 0.0, 0.0, 0.0, 0.0, 0.0, 0.0, 1.769518928353479E9, 0.0, 2026-01-27 18:32:08.353
7.0, -108015.07330120484, -108666.31372765468, -108193.19435276919, -111744.93125020638, -187500.02235174447, -123815.00736653894, -153994.2433231167, -115944.62286765849, -0.014, -0.634, 0.792, 192.0, 0.0, 0.0, 0.0, 0.0, 0.0, 0.0, 0.0, 0.0, 0.0, 1.769518928353493E9, 0.0, 2026-01-27 18:32:08.353
8.0, -108131.63764853927, -108780.5758453102, -108309.64694138133, -111861.11561788508, -187500.02235174447, -123814.94031130557, -153992.9916254272, -115944.77932986968, -0.014, -0.634, 0.792, 192.0, 0.0, 0.0, 0.0, 0.0, 0.0, 0.0, 0.0, 0.0, 0.0, 1.7695189283535192E9, 0.0, 2026-01-27 18:32:08.353
9.0, -108302.62849362237, -108959.81448409731, -108489.1538011019, -112040.42131190555, -187500.02235174447, -123815.61086363923, -153992.43283181582, -115945.58399267007, -0.014, -0.634, 0.792, 192.0, 0.0, 0.0, 0.0, 0.0, 0.0, 0.0, 0.0, 0.0, 0.0, 1.769518928353534E9, 0.0, 2026-01-27 18:32:08.353
10.0, -108279.04740322202, -108942.0671989998, -108469.64072819242, -112020.55061108478, -187500.02235174447, -123815.63321538368, -153991.31524459308, -115945.9192688369, -0.014, -0.634, 0.792, 192.0, 0.0, 0.0, 0.0, 0.0, 0.0, 0.0, 0.0, 0.0, 0.0, 1.7695189283535483E9, 0.0, 2026-01-27 18:32:08.353
11.0, -108108.8165174504, -108767.90240620404, -108294.89479004084, -111845.82702467765, -187500.02235174447, -123815.90143631714, -153990.5999887705, -115946.67922814838, -0.014, -0.634, 0.792, 192.0, 0.0, 0.0, 0.0, 0.0, 0.0, 0.0, 0.0, 0.0, 0.0, 1.7695189283535624E9, 0.0, 2026-01-27 18:32:08.353
12.0, -108029.8031008009, -108680.37297491706, -108209.08644307691, -111761.2256719143, -187500.02235174447, -123816.14730550615, -153989.88473294792, -115947.30507699313, -0.012, -0.632, 0.788, 192.0, 255.0, 160.0, 236.0, 64.0, 24.0, 160.0, 0.0, 0.0, 0.0, 1.769518928353577E9, 0.0, 2026-01-27 18:32:08.353
13.0, -108151.64245982678, -108800.51360136434, -108331.08226431397, -111884.58494956314, -187500.02235174447, -123814.44857292755, -153987.1354683799, -115945.89691709244, -0.012, -0.632, 0.788, 192.0, 0.0, 0.0, 0.0, 0.0, 0.0, 0.0, 0.0, 0.0, 0.0, 1.769518928353592E9, 0.0, 2026-01-27 18:32:08.353
14.0, -108319.90639208633, -108977.0700308168, -108507.83985946655, -112061.40959994908, -187500.02235174447, -123814.35916594973, -153985.86141894598, -115945.9639723258, -0.012, -0.632, 0.788, 192.0, 0.0, 0.0, 0.0, 0.0, 0.0, 0.0, 0.0, 0.0, 0.0, 1.7695189283536065E9, 0.0, 2026-01-27 18:32:08.353
15.0, -108290.82677254996, -108953.6677543721, -108482.20240857631, -112034.11811996915, -187500.02235174447, -123813.59920663825, -153984.11798287847, -115945.56164092562, -0.012, -0.632, 0.788, 192.0, 0.0, 0.0, 0.0, 0.0, 0.0, 0.0, 0.0, 0.0, 0.0, 1.7695189283536208E9, 0.0, 2026-01-27 18:32:08.353
16.0, -108108.66005523922, -108767.47772305939, -108294.13483072935, -111844.01653337677, -187500.02235174447, -123808.25713971343, -153977.70303221978, -115940.55485016762, -0.012, -0.632, 0.788, 192.0, 0.0, 0.0, 0.0, 0.0, 0.0, 0.0, 0.0, 0.0, 0.0, 1.7695189283536348E9, 0.0, 2026-01-27 18:32:08.353
17.0, -108028.70786532258, -108679.47890513885, -108207.96885585414, -111758.4317038574, -187500.02235174447, -123805.48552340097, -153973.7467734512, -115937.98439955527, -0.012, -0.632, 0.788, 192.0, 0.0, 0.0, 0.0, 0.0, 0.0, 0.0, 0.0, 0.0, 0.0, 1.7695189283536491E9, 0.0, 2026-01-27 18:32:08.353
18.0, -108156.87276802931, -108806.0344822448, -108337.38545625037, -111888.63061530956, -187500.02235174447, -123807.47482865749, -153974.4843810182, -115939.92900132287, -0.012, -0.632, 0.788, 192.0, 0.0, 0.0, 0.0, 0.0, 0.0, 0.0, 0.0, 0.0, 0.0, 1.7695189283536637E9, 0.0, 2026-01-27 18:32:08.353
19.0, -108326.03077006708, -108982.54620820835, -108514.63478978096, -112066.5952046627, -187500.02235174447, -123809.71000310303, -153975.4455060298, -115942.23123100177, -0.012, -0.632, 0.788, 192.0, 0.0, 0.0, 0.0, 0.0, 0.0, 0.0, 0.0, 0.0, 0.0, 1.769518928353678E9, 0.0, 2026-01-27 18:32:08.353
20.0, -108291.8549527949, -108953.44423692755, -108483.94584464382, -112035.25805893638, -187500.02235174447, -123809.21826472502, -153973.7467734512, -115941.94065832385, -0.012, -0.632, 0.788, 192.0, 0.0, 0.0, 0.0, 0.0, 0.0, 0.0, 0.0, 0.0, 0.0, 1.7695189283536923E9, 0.0, 2026-01-27 18:32:08.353
21.0, -108110.515250029, -108767.5224265483, -108297.4652406532, -111848.41982703446, -187500.02235174447, -123808.61476762472, -153972.1821513393, -115941.76184436821, -0.012, -0.632, 0.788, 192.0, 0.0, 0.0, 0.0, 0.0, 0.0, 0.0, 0.0, 0.0, 0.0, 1.7695189283537066E9, 0.0, 2026-01-27 18:32:08.353
22.0, -108035.16751947017, -108683.36810867407, -108214.87554489083, -111767.01477372824, -187500.02235174447, -123806.20077922354, -153968.80703792657, -115939.70548387832, -0.016, -0.63, 0.784, 192.0, 255.0, 128.0, 236.0, 80.0, 24.0, 128.0, 0.0, 0.0, 0.0, 1.769518928353721E9, 0.0, 2026-01-27 18:32:08.353
23.0, -108164.91939603322, -108811.39890091406, -108345.09680808746, -111898.39832763653, -187500.02235174447, -123804.56910187831, -153965.9907181252, -115938.20791699982, -0.016, -0.63, 0.784, 192.0, 0.0, 0.0, 0.0, 0.0, 0.0, 0.0, 0.0, 0.0, 0.0, 1.7695189283537452E9, 0.0, 2026-01-27 18:32:08.353
24.0, -108332.51277595911, -108987.55299896635, -108521.27325788418, -112074.01598382187, -187500.02235174447, -123805.82079956781, -153965.96836638075, -115939.54902166713, -0.016, -0.63, 0.784, 192.0, 0.0, 0.0, 0.0, 0.0, 0.0, 0.0, 0.0, 0.0, 0.0, 1.7695189283537595E9, 0.0, 2026-01-27 18:32:08.353
25.0, -108292.0114150061, -108952.68427761606, -108485.15283884441, -112036.75562581488, -187500.02235174447, -123806.33488969028, -153965.45427625827, -115940.44309144534, -0.016, -0.63, 0.784, 192.0, 0.0, 0.0, 0.0, 0.0, 0.0, 0.0, 0.0, 0.0, 0.0, 1.769518928353774E9, 0.0, 2026-01-27 18:32:08.353
26.0, -108105.12847961528, -108761.50980728983, -108293.17370571778, -111844.57532698815, -187500.02235174447, -123803.38445942217, -153961.67683144534, -115937.91734432189, -0.016, -0.63, 0.784, 192.0, 0.0, 0.0, 0.0, 0.0, 0.0, 0.0, 0.0, 0.0, 0.0, 1.7695189283537884E9, 0.0, 2026-01-27 18:32:08.353
27.0, -108032.23944094652, -108680.03769875022, -108213.44503324569, -111765.45015161636, -187500.02235174447, -123801.64102335466, -153958.8381598995, -115936.4644809323, -0.016, -0.63, 0.784, 192.0, 0.0, 0.0, 0.0, 0.0, 0.0, 0.0, 0.0, 0.0, 0.0, 1.7695189283538027E9, 0.0, 2026-01-27 18:32:08.353
28.0, -108166.61812861182, -108812.80706081475, -108348.20370056674, -111900.76761254879, -187500.02235174447, -123801.50691288793, -153957.56411046555, -115936.4644809323, -0.016, -0.63, 0.784, 192.0, 0.0, 0.0, 0.0, 0.0, 0.0, 0.0, 0.0, 0.0, 0.0, 1.7695189283538177E9, 0.0, 2026-01-27 18:32:08.353
29.0, -108331.6187061809, -108986.36835651021, -108521.11679567299, -112073.63600416614, -187500.02235174447, -123801.41750591011, -153956.13359882042, -115936.48683267676, -0.016, -0.63, 0.784, 192.0, 0.0, 0.0, 0.0, 0.0, 0.0, 0.0, 0.0, 0.0, 0.0, 1.7695189283538325E9, 0.0, 2026-01-27 18:32:08.353
30.0, -108289.88799928284, -108949.9126613036, -108483.07412661007, -112034.96748625845, -187500.02235174447, -123803.18329372208, -153956.78179940963, -115938.29732397763, -0.016, -0.63, 0.784, 192.0, 0.0, 0.0, 0.0, 0.0, 0.0, 0.0, 0.0, 0.0, 0.0, 1.769518928353847E9, 0.0, 2026-01-27 18:32:08.353
31.0, -108104.68144472617, -108759.85577820013, -108292.10082198391, -111842.80953917617, -187500.02235174447, -123803.58562512227, -153956.17830230933, -115939.10198677803, -0.016, -0.63, 0.784, 192.0, 0.0, 0.0, 0.0, 0.0, 0.0, 0.0, 0.0, 0.0, 0.0, 1.7695189283538616E9, 0.0, 2026-01-27 18:32:08.353
32.0, -108031.9488682686, -108678.74129757182, -108212.23803904511, -111763.90788124895, -187500.02235174447, -123800.05404949833, -153951.52913946263, -115935.8162803431, -0.012, -0.638, 0.782, 192.0, 255.0, 160.0, 236.0, 16.0, 24.0, 112.0, 0.0, 0.0, 0.0, 1.769518928353876E9, 0.0, 2026-01-27 18:32:08.353
33.0, -108168.49567514607, -108814.25992420435, -108349.25423255614, -111901.95225500492, -187500.02235174447, -123800.47873264298, -153950.79153189558, -115936.30801872112, -0.012, -0.638, 0.782, 192.0, 0.0, 0.0, 0.0, 0.0, 0.0, 0.0, 0.0, 0.0, 0.0, 1.7695189283538911E9, 0.0, 2026-01-27 18:32:08.353
34.0, -108334.70324691574, -108989.00586235595, -108524.22368815228, -112076.76524838987, -187500.02235174447, -123802.04335475486, -153951.0374010846, -115937.93969606636, -0.012, -0.638, 0.782, 192.0, 0.0, 0.0, 0.0, 0.0, 0.0, 0.0, 0.0, 0.0, 0.0, 1.7695189283539062E9, 0.0, 2026-01-27 18:32:08.353
35.0, -108288.97157776018, -108948.4150944251, -108481.95653938729, -112033.46991937995, -187500.02235174447, -123801.30574718783, -153949.338668506, -115937.47030943279, -0.012, -0.638, 0.782, 192.0, 0.0, 0.0, 0.0, 0.0, 0.0, 0.0, 0.0, 0.0, 0.0, 1.769518928353921E9, 0.0, 2026-01-27 18:32:08.353
36.0, -108100.43461327966, -108755.20661535343, -108287.69752832623, -111838.80857691867, -187500.02235174447, -123799.20468320903, -153946.32118300453, -115935.88333557647, -0.012, -0.638, 0.782, 192.0, 0.0, 0.0, 0.0, 0.0, 0.0, 0.0, 0.0, 0.0, 0.0, 1.769518928353944E9, 0.0, 2026-01-27 18:32:08.353
37.0, -108031.72535082405, -108678.29426268271, -108212.41685300074, -111764.39961962696, -187500.02235174447, -123798.35531691973, -153944.2424707702, -115935.19043149835, -0.012, -0.638, 0.782, 192.0, 0.0, 0.0, 0.0, 0.0, 0.0, 0.0, 0.0, 0.0, 0.0, 1.7695189283539636E9, 0.0, 2026-01-27 18:32:08.353
38.0, -108169.63561411329, -108815.01988351582, -108351.2211860682, -111904.25448468381, -187500.02235174447, -123798.46707564201, -153943.01312482514, -115935.32454196508, -0.012, -0.638, 0.782, 192.0, 0.0, 0.0, 0.0, 0.0, 0.0, 0.0, 0.0, 0.0, 0.0, 1.7695189283539896E9, 0.0, 2026-01-27 18:32:08.353
39.0, -108333.0268660816, -108986.61422569922, -108522.56965906259, -112075.73706814494, -187500.02235174447, -123798.28826168636, -153941.62731666892, -115935.32454196508, -0.012, -0.638, 0.782, 192.0, 0.0, 0.0, 0.0, 0.0, 0.0, 0.0, 0.0, 0.0, 0.0, 1.7695189283540049E9, 0.0, 2026-01-27 18:32:08.354
40.0, -108285.57411260298, -108944.4141321676, -108478.51437074118, -112030.7877100453, -187500.02235174447, -123797.99768900845, -153940.42032246833, -115935.43630068736, -0.012, -0.638, 0.782, 192.0, 0.0, 0.0, 0.0, 0.0, 0.0, 0.0, 0.0, 0.0, 0.0, 1.7695189283540208E9, 0.0, 2026-01-27 18:32:08.354
41.0, -108097.97592138957, -108752.3232403187, -108285.17178120278, -111836.48399549532, -187500.02235174447, -123797.7741715639, -153939.25803175665, -115935.57041115408, -0.012, -0.638, 0.782, 192.0, 0.0, 0.0, 0.0, 0.0, 0.0, 0.0, 0.0, 0.0, 0.0, 1.7695189283540351E9, 0.0, 2026-01-27 18:32:08.354
42.0, -108031.54653686841, -108677.78017256025, -108211.85805938937, -111763.9302329934, -187500.02235174447, -123796.45541864102, -153936.97815382222, -115934.67634137587, -0.01, -0.638, 0.78, 192.0, 255.0, 176.0, 236.0, 16.0, 24.0, 96.0, 0.0, 0.0, 0.0, 1.7695189283540502E9, 0.0, 2026-01-27 18:32:08.354
43.0, -108172.02725077001, -108817.47857540591, -108353.56811923602, -111907.16021146301, -187500.02235174447, -123797.72946807498, -153937.1346160334, -115936.12920476547, -0.01, -0.638, 0.78, 192.0, 0.0, 0.0, 0.0, 0.0, 0.0, 0.0, 0.0, 0.0, 0.0, 1.7695189283540666E9, 0.0, 2026-01-27 18:32:08.354
44.0, -108335.10557831592, -108989.51995247841, -108525.22951665278, -112077.94989084601, -187500.02235174447, -123798.75764831992, -153936.8887468444, -115937.17973675487, -0.01, -0.638, 0.78, 192.0, 0.0, 0.0, 0.0, 0.0, 0.0, 0.0, 0.0, 0.0, 0.0, 1.7695189283540814E9, 0.0, 2026-01-27 18:32:08.354
45.0, -108284.18830444674, -108943.92239378959, -108477.50854224068, -112028.73134955543, -187500.02235174447, -123797.68476458607, -153934.81003461004, -115936.39742569893, -0.01, -0.638, 0.78, 192.0, 0.0, 0.0, 0.0, 0.0, 0.0, 0.0, 0.0, 0.0, 0.0, 1.7695189283540957E9, 0.0, 2026-01-27 18:32:08.354
46.0, -108096.41129927771, -108750.49039727336, -108283.92008351328, -111835.18759431691, -187500.02235174447, -123797.52830237488, -153933.71479913173, -115936.59859139903, -0.01, -0.638, 0.78, 192.0, 0.0, 0.0, 0.0, 0.0, 0.0, 0.0, 0.0, 0.0, 0.0, 1.7695189283541098E9, 0.0, 2026-01-27 18:32:08.354
47.0, -108032.95469676908, -108678.54013187172, -108214.00382685708, -111766.21011092784, -187500.02235174447, -123797.50595063042, -153932.6866188868, -115936.97857105477, -0.01, -0.638, 0.78, 192.0, 0.0, 0.0, 0.0, 0.0, 0.0, 0.0, 0.0, 0.0, 0.0, 1.7695189283541245E9, 0.0, 2026-01-27 18:32:08.354
48.0, -108173.25659671506, -108816.91978179452, -108354.39513378085, -111907.04845274072, -187500.02235174447, -123797.41654365261, -153931.2337554972, -115936.91151582141, -0.01, -0.638, 0.78, 192.0, 0.0, 0.0, 0.0, 0.0, 0.0, 0.0, 0.0, 0.0, 0.0, 1.769518928354139E9, 0.0, 2026-01-27 18:32:08.354
49.0, -108331.12696780289, -108983.39557449766, -108520.66976078389, -112072.42900996555, -187500.02235174447, -123793.95202326204, -153926.51753741712, -115933.44699543083, -0.01, -0.638, 0.78, 192.0, 0.0, 0.0, 0.0, 0.0, 0.0, 0.0, 0.0, 0.0, 0.0, 1.769518928354154E9, 0.0, 2026-01-27 18:32:08.354
50.0, -108277.97451948817, -108935.98752450795, -108471.89825438241, -112023.18811693051, -187500.02235174447, -123792.05212498334, -153923.74592110468, -115932.0164837857, -0.01, -0.638, 0.78, 192.0, 0.0, 0.0, 0.0, 0.0, 0.0, 0.0, 0.0, 0.0, 0.0, 1.7695189283541684E9, 0.0, 2026-01-27 18:32:08.354
51.0, -108090.68925269715, -108743.78487393676, -108278.82388577747, -111830.06904483665, -187500.02235174447, -123792.58856685026, -153923.3882931934, -115932.99996054173, -0.01, -0.638, 0.78, 192.0, 0.0, 0.0, 0.0, 0.0, 0.0, 0.0, 0.0, 0.0, 0.0, 1.7695189283541827E9, 0.0, 2026-01-27 18:32:08.354
52.0, -108028.64081008921, -108673.37687890255, -108209.75699541057, -111761.89622424796, -187500.02235174447, -123791.8733110277, -153921.6895606148, -115932.59762914153, -0.006, -0.646, 0.778, 192.0, 255.0, 208.0, 235.0, 208.0, 24.0, 80.0, 0.0, 0.0, 0.0, 1.7695189283541973E9, 0.0, 2026-01-27 18:32:08.354
53.0, -108171.62491936982, -108815.75749108286, -108353.74693319165, -111905.77440330677, -187500.02235174447, -123793.19206395056, -153921.8907263149, -115934.05049253113, -0.006, -0.646, 0.778, 192.0, 0.0, 0.0, 0.0, 0.0, 0.0, 0.0, 0.0, 0.0, 0.0, 1.769518928354221E9, 0.0, 2026-01-27 18:32:08.354
54.0, -108333.3174387595, -108985.69780417655, -108523.50843232972, -112074.59712917771, -187500.02235174447, -123795.15901746262, -153922.76244434863, -115936.24096348775, -0.006, -0.646, 0.778, 192.0, 0.0, 0.0, 0.0, 0.0, 0.0, 0.0, 0.0, 0.0, 0.0, 1.769518928354236E9, 0.0, 2026-01-27 18:32:08.354
55.0, -108277.37102238787, -108934.26644018489, -108470.51244622617, -112021.60114307418, -187500.02235174447, -123792.14153196116, -153918.7838338356, -115933.60345764202, -0.006, -0.646, 0.778, 192.0, 0.0, 0.0, 0.0, 0.0, 0.0, 0.0, 0.0, 0.0, 0.0, 1.7695189283542502E9, 0.0, 2026-01-27 18:32:08.354
56.0, -108087.33649102885, -108739.04630411224, -108274.84527526442, -111826.71628316835, -187500.02235174447, -123789.19110169305, -153914.93933378928, -115931.05535877412, -0.006, -0.646, 0.778, 192.0, 0.0, 0.0, 0.0, 0.0, 0.0, 0.0, 0.0, 0.0, 0.0, 1.7695189283542645E9, 0.0, 2026-01-27 18:32:08.354
57.0, -108025.77978679894, -108668.88417826704, -108206.51599246456, -111758.4764073463, -187500.02235174447, -123788.14056970365, -153912.90532504386, -115930.29539946263, -0.006, -0.646, 0.778, 192.0, 0.0, 0.0, 0.0, 0.0, 0.0, 0.0, 0.0, 0.0, 0.0, 1.7695189283542786E9, 0.0, 2026-01-27 18:32:08.354
58.0, -108168.20510246816, -108810.39307241359, -108349.79067442307, -111901.48286837136, -187500.02235174447, -123787.8723487702, -153911.25129595416, -115929.98247504026, -0.006, -0.646, 0.778, 192.0, 0.0, 0.0, 0.0, 0.0, 0.0, 0.0, 0.0, 0.0, 0.0, 1.7695189283542929E9, 0.0, 2026-01-27 18:32:08.354
59.0, -108328.64592416835, -108979.75224015144, -108518.72515901628, -112069.56798667526, -187500.02235174447, -123789.52637785989, -153911.69833084327, -115931.83766983006, -0.006, -0.646, 0.778, 192.0, 0.0, 0.0, 0.0, 0.0, 0.0, 0.0, 0.0, 0.0, 0.0, 1.7695189283543077E9, 0.0, 2026-01-27 18:32:08.354
60.0, -108275.44877236472, -108931.53952736134, -108468.36667875847, -112018.40484361707, -187500.02235174447, -123789.973412749, -153911.0724819985, -115932.59762914153, -0.006, -0.646, 0.778, 192.0, 0.0, 0.0, 0.0, 0.0, 0.0, 0.0, 0.0, 0.0, 0.0, 1.7695189283543217E9, 0.0, 2026-01-27 18:32:08.354
61.0, -108084.6095782053, -108735.5147284883, -108271.33605138493, -111821.39656798799, -187500.02235174447, -123787.00063073644, -153907.16092671885, -115929.84836457353, -0.006, -0.646, 0.778, 192.0, 0.0, 0.0, 0.0, 0.0, 0.0, 0.0, 0.0, 0.0, 0.0, 1.769518928354336E9, 0.0, 2026-01-27 18:32:08.354
62.0, -108027.34440891081, -108670.60526259009, -108208.08061457642, -111759.10225619105, -187500.02235174447, -123789.03463948186, -153908.09969998596, -115932.08353901906, -0.002, -0.646, 0.772, 192.0, 255.0, 240.0, 235.0, 208.0, 24.0, 32.0, 0.0, 0.0, 0.0, 1.76951892835435E9, 0.0, 2026-01-27 18:32:08.354
63.0, -108170.39557342477, -108813.45526140396, -108352.94227039127, -111904.6121125951, -187500.02235174447, -123788.5652528483, -153906.4680226407, -115931.77061459668, -0.002, -0.646, 0.772, 192.0, 0.0, 0.0, 0.0, 0.0, 0.0, 0.0, 0.0, 0.0, 0.0, 1.7695189283543653E9, 0.0, 2026-01-27 18:32:08.354
64.0, -108329.38353173537, -108981.62978668569, -108520.33448461707, -112071.51258844289, -187500.02235174447, -123790.0181162379, -153906.7809470631, -115933.49169891975, -0.002, -0.646, 0.772, 192.0, 0.0, 0.0, 0.0, 0.0, 0.0, 0.0, 0.0, 0.0, 0.0, 1.7695189283543797E9, 0.0, 2026-01-27 18:32:08.354
65.0, -108273.37006013037, -108930.91367851659, -108467.62907119145, -112018.06956745023, -187500.02235174447, -123788.49819761494, -153904.3669586619, -115932.41881518588, -0.002, -0.646, 0.772, 192.0, 0.0, 0.0, 0.0, 0.0, 0.0, 0.0, 0.0, 0.0, 0.0, 1.7695189283543937E9, 0.0, 2026-01-27 18:32:08.354
66.0, -108081.56974095938, -108734.39714126554, -108270.21846416217, -111820.5919051876, -187500.02235174447, -123784.49723535744, -153899.38251964838, -115928.8201843286, -0.002, -0.646, 0.772, 192.0, 0.0, 0.0, 0.0, 0.0, 0.0, 0.0, 0.0, 0.0, 0.0, 1.7695189283544085E9, 0.0, 2026-01-27 18:32:08.354
67.0, -108023.67872282014, -108668.83947477811, -108205.30899826396, -111756.35299162305, -187500.02235174447, -123783.98314523498, -153897.99671149216, -115928.59666688403, -0.002, -0.646, 0.772, 192.0, 0.0, 0.0, 0.0, 0.0, 0.0, 0.0, 0.0, 0.0, 0.0, 1.7695189283544343E9, 0.0, 2026-01-27 18:32:08.354
68.0, -108166.55107337846, -108811.17538346951, -108349.50010174514, -111901.2593509268, -187500.02235174447, -123783.3125929013, -153896.14151670237, -115928.12728025047, -0.002, -0.646, 0.772, 192.0, 0.0, 0.0, 0.0, 0.0, 0.0, 0.0, 0.0, 0.0, 0.0, 1.7695189283544528E9, 0.0, 2026-01-27 18:32:08.354
69.0, -108323.28150549908, -108976.64534767215, -108514.56773454759, -112065.87994884014, -187500.02235174447, -123783.60316557923, -153895.24744692416, -115928.55196339512, -0.002, -0.646, 0.772, 192.0, 0.0, 0.0, 0.0, 0.0, 0.0, 0.0, 0.0, 0.0, 0.0, 1.7695189283544712E9, 0.0, 2026-01-27 18:32:08.354
70.0, -108265.74811527111, -108923.71641680198, -108460.02947807664, -112010.40291910207, -187500.02235174447, -123781.07741845578, -153891.62646432238, -115926.29443720514, -0.002, -0.646, 0.772, 192.0, 0.0, 0.0, 0.0, 0.0, 0.0, 0.0, 0.0, 0.0, 0.0, 1.769518928354486E9, 0.0, 2026-01-27 18:32:08.354
71.0, -108079.44632523613, -108731.93844937545, -108267.69271703872, -111817.21679177484, -187500.02235174447, -123781.92678474508, -153891.53705734457, -115927.52378315017, -0.002, -0.646, 0.772, 192.0, 0.0, 0.0, 0.0, 0.0, 0.0, 0.0, 0.0, 0.0, 0.0, 1.7695189283545E9, 0.0, 2026-01-27 18:32:08.354
72.0, -108022.0470454749, -108667.16309394398, -108203.789079641, -111753.87194798852, -187500.02235174447, -123780.63038356668, -153889.27953115458, -115926.49560290524, -0.002, -0.646, 0.772, 192.0, 0.0, 0.0, 235.0, 160.0, 24.0, 48.0, 0.0, 0.0, 0.0, 1.7695189283545141E9, 0.0, 2026-01-27 18:32:08.354
73.0, -108165.74641057807, -108810.16955496903, -108349.00836336713, -111899.94059800394, -187500.02235174447, -123780.29510739984, -153887.78196427607, -115926.3614924385, -0.002, -0.646, 0.772, 192.0, 0.0, 0.0, 0.0, 0.0, 0.0, 0.0, 0.0, 0.0, 0.0, 1.769518928354529E9, 0.0, 2026-01-27 18:32:08.354
74.0, -108319.43700545275, -108972.26440575892, -108510.76793799018, -112061.63311739363, -187500.02235174447, -123779.35633413272, -153885.63619680837, -115925.53447789366, -0.002, -0.646, 0.772, 192.0, 0.0, 0.0, 0.0, 0.0, 0.0, 0.0, 0.0, 0.0, 0.0, 1.7695189283545432E9, 0.0, 2026-01-27 18:32:08.354
75.0, -108262.17183615826, -108920.31895164477, -108456.20732977478, -112006.31254986675, -187500.02235174447, -123778.84224401024, -153884.0715746965, -115925.4674226603, -0.002, -0.646, 0.772, 192.0, 0.0, 0.0, 0.0, 0.0, 0.0, 0.0, 0.0, 0.0, 0.0, 1.7695189283545575E9, 0.0, 2026-01-27 18:32:08.354
76.0, -108074.35012750032, -108727.33399001767, -108261.94831871371, -111812.27705625023, -187500.02235174447, -123777.45643585402, -153881.61288280642, -115924.37218718199, -0.002, -0.646, 0.772, 192.0, 0.0, 0.0, 0.0, 0.0, 0.0, 0.0, 0.0, 0.0, 0.0, 1.769518928354572E9, 0.0, 2026-01-27 18:32:08.354
77.0, -108020.1471471962, -108664.81616077617, -108200.54807669498, -111751.18973865388, -187500.02235174447, -123777.8140637653, -153880.87527523938, -115924.9086290489, -0.002, -0.646, 0.772, 192.0, 0.0, 0.0, 0.0, 0.0, 0.0, 0.0, 0.0, 0.0, 0.0, 1.7695189283545864E9, 0.0, 2026-01-27 18:32:08.354
78.0, -108167.04281175647, -108811.22008695842, -108348.65073545584, -111899.5606183482, -187500.02235174447, -123780.98801147795, -153882.81987700702, -115928.17198373938, -0.002, -0.646, 0.772, 192.0, 0.0, 0.0, 0.0, 0.0, 0.0, 0.0, 0.0, 0.0, 0.0, 1.7695189283546004E9, 0.0, 2026-01-27 18:32:08.354
79.0, -108320.48753744215, -108973.13612379268, -108510.38795833445, -112060.94021331552, -187500.02235174447, -123780.54097658885, -153880.98703396166, -115927.8143558281, -0.002, -0.646, 0.772, 192.0, 0.0, 0.0, 0.0, 0.0, 0.0, 0.0, 0.0, 0.0, 0.0, 1.7695189283546147E9, 0.0, 2026-01-27 18:32:08.354
80.0, -108262.23889139164, -108919.91662024458, -108455.42501871884, -112005.0385004328, -187500.02235174447, -123778.70813354352, -153878.10365892694, -115926.24973371622, -0.002, -0.646, 0.772, 192.0, 0.0, 0.0, 0.0, 0.0, 0.0, 0.0, 0.0, 0.0, 0.0, 1.769518928354629E9, 0.0, 2026-01-27 18:32:08.354
81.0, -108075.80299088992, -108728.22805979587, -108263.4011821033, -111812.92525683943, -187500.02235174447, -123777.94817423203, -153876.42727809277, -115925.89210580495, -0.002, -0.646, 0.772, 192.0, 0.0, 0.0, 0.0, 0.0, 0.0, 0.0, 0.0, 0.0, 0.0, 1.769518928354643E9, 0.0, 2026-01-27 18:32:08.354
82.0, -108018.96250474006, -108663.58681483113, -108200.10104180587, -111750.69800027586, -187500.02235174447, -123775.10950268622, -153872.6274815354, -115923.32165519259, -0.004, -0.652, 0.774, 192.0, 255.0, 224.0, 235.0, 160.0, 24.0, 48.0, 0.0, 0.0, 0.0, 1.7695189283546672E9, 0.0, 2026-01-27 18:32:08.354
83.0, -108160.6278610978, -108804.87219153313, -108343.17455806429, -111894.3079584012, -187500.02235174447, -123772.82962475177, -153869.14060940035, -115921.17588772486, -0.004, -0.652, 0.774, 192.0, 0.0, 0.0, 0.0, 0.0, 0.0, 0.0, 0.0, 0.0, 0.0, 1.7695189283546827E9, 0.0, 2026-01-27 18:32:08.354
84.0, -108312.23974373814, -108965.78239986688, -108503.59302802004, -112054.39115219012, -187500.02235174447, -123772.00261020692, -153867.08424891045, -115920.48298364675, -0.004, -0.652, 0.774, 192.0, 0.0, 0.0, 0.0, 0.0, 0.0, 0.0, 0.0, 0.0, 0.0, 1.7695189283546968E9, 0.0, 2026-01-27 18:32:08.354
85.0, -108254.3487255989, -108912.87582074116, -108449.12182678246, -111999.6293782746, -187500.02235174447, -123771.19794740653, -153865.18435063175, -115920.0583005021, -0.004, -0.652, 0.774, 192.0, 0.0, 0.0, 0.0, 0.0, 0.0, 0.0, 0.0, 0.0, 0.0, 1.7695189283547113E9, 0.0, 2026-01-27 18:32:08.354
86.0, -108071.17617978767, -108724.67413242748, -108259.89195822382, -111810.26539924926, -187500.02235174447, -123772.98608696296, -153866.07842041, -115922.20406796981, -0.004, -0.652, 0.774, 192.0, 0.0, 0.0, 0.0, 0.0, 0.0, 0.0, 0.0, 0.0, 0.0, 1.7695189283547256E9, 0.0, 2026-01-27 18:32:08.354
87.0, -108016.45910936108, -108661.97748923034, -108198.7375853941, -111749.02161944172, -187500.02235174447, -123771.55557531782, -153863.64208026434, -115921.04177725814, -0.004, -0.652, 0.774, 192.0, 0.0, 0.0, 0.0, 0.0, 0.0, 0.0, 0.0, 0.0, 0.0, 1.76951892835474E9, 0.0, 2026-01-27 18:32:08.354
88.0, -108158.70561107465, -108803.59814209916, -108342.19108130826, -111893.10096420062, -187500.02235174447, -123770.28152588387, -153861.1163331409, -115919.87948654646, -0.004, -0.652, 0.774, 192.0, 0.0, 0.0, 0.0, 0.0, 0.0, 0.0, 0.0, 0.0, 0.0, 1.769518928354754E9, 0.0, 2026-01-27 18:32:08.354
89.0, -108309.69164487024, -108963.90485333263, -108501.67077799689, -112052.08892251122, -187500.02235174447, -123770.03565669486, -153859.7752284736, -115919.70067259081, -0.004, -0.652, 0.774, 192.0, 0.0, 0.0, 0.0, 0.0, 0.0, 0.0, 0.0, 0.0, 0.0, 1.7695189283547683E9, 0.0, 2026-01-27 18:32:08.354
90.0, -108252.11355115338, -108911.33355037375, -108447.24428024821, -111996.27661660632, -187500.02235174447, -123769.29804912783, -153857.98708891714, -115919.2089342128, -0.004, -0.652, 0.774, 192.0, 0.0, 0.0, 0.0, 0.0, 0.0, 0.0, 0.0, 0.0, 0.0, 1.7695189283547823E9, 0.0, 2026-01-27 18:32:08.354
91.0, -108069.11981929778, -108722.70717891541, -108258.1485221563, -111807.13615502551, -187500.02235174447, -123770.2144706505, -153857.7635714726, -115920.59474236904, -0.004, -0.652, 0.774, 192.0, 0.0, 0.0, 0.0, 0.0, 0.0, 0.0, 0.0, 0.0, 0.0, 1.7695189283547966E9, 0.0, 2026-01-27 18:32:08.354
92.0, -108015.07330120484, -108660.63638456303, -108198.13408829381, -111749.24513688627, -187500.02235174447, -123769.29804912783, -153855.7072109827, -115919.87948654646, -0.004, -0.648, 0.774, 192.0, 255.0, 224.0, 235.0, 192.0, 24.0, 48.0, 0.0, 0.0, 0.0, 1.7695189283548107E9, 0.0, 2026-01-27 18:32:08.354
93.0, -108156.67160232921, -108801.54178160928, -108340.26883128511, -111892.09513570013, -187500.02235174447, -123770.68385728406, -153855.7742662161, -115921.3099981916, -0.004, -0.648, 0.774, 192.0, 0.0, 0.0, 0.0, 0.0, 0.0, 0.0, 0.0, 0.0, 0.0, 1.7695189283548257E9, 0.0, 2026-01-27 18:32:08.354
94.0, -108302.47203141118, -108955.79117009536, -108493.78061220415, -112043.68466659602, -187500.02235174447, -123769.25334563892, -153853.22616734818, -115920.03594875765, -0.004, -0.648, 0.774, 192.0, 0.0, 0.0, 0.0, 0.0, 0.0, 0.0, 0.0, 0.0, 0.0, 1.7695189283548403E9, 0.0, 2026-01-27 18:32:08.354
95.0, -108249.65485926329, -108908.20430615, -108444.78558835812, -111993.54970378277, -187500.02235174447, -123766.72759851547, -153849.62753649088, -115917.84547780103, -0.004, -0.648, 0.774, 192.0, 0.0, 0.0, 0.0, 0.0, 0.0, 0.0, 0.0, 0.0, 0.0, 1.7695189283548543E9, 0.0, 2026-01-27 18:32:08.354
96.0, -108070.46092396509, -108723.66830392698, -108259.3555163569, -111808.45490794837, -187500.02235174447, -123764.60418279222, -153846.63240273387, -115916.14674522243, -0.004, -0.648, 0.774, 192.0, 0.0, 0.0, 0.0, 0.0, 0.0, 0.0, 0.0, 0.0, 0.0, 1.7695189283548684E9, 0.0, 2026-01-27 18:32:08.354
97.0, -108015.85561226078, -108660.97166072985, -108197.97762608262, -111748.26166013023, -187500.02235174447, -123766.23586013746, -153847.14649285632, -115918.06899524559, -0.004, -0.648, 0.774, 192.0, 0.0, 0.0, 0.0, 0.0, 0.0, 0.0, 0.0, 0.0, 0.0, 1.7695189283548913E9, 0.0, 2026-01-27 18:32:08.354
98.0, -108152.73769530508, -108797.18319144049, -108335.86553762741, -111886.55190307522, -187500.02235174447, -123769.32040087228, -153849.0687428795, -115921.19823946933, -0.004, -0.648, 0.774, 192.0, 0.0, 0.0, 0.0, 0.0, 0.0, 0.0, 0.0, 0.0, 0.0, 1.769518928354906E9, 0.0, 2026-01-27 18:32:08.354
99.0, -108303.23199072266, -108956.46172242901, -108494.94290291583, -112045.38339917462, -187500.02235174447, -123769.96860146149, -153848.4652457792, -115921.98055052526, -0.004, -0.648, 0.774, 192.0, 0.0, 0.0, 0.0, 0.0, 0.0, 0.0, 0.0, 0.0, 0.0, 1.76951892835492E9, 0.0, 2026-01-27 18:32:08.354
100.0, -108252.60528953139, -108911.1547364181, -108447.44544594831, -111997.79653522928, -187500.02235174447, -123767.91224097161, -153845.42540853328, -115920.23711445775, -0.004, -0.648, 0.774, 192.0, 0.0, 0.0, 0.0, 0.0, 0.0, 0.0, 0.0, 0.0, 0.0, 1.7695189283549345E9, 0.0, 2026-01-27 18:32:08.354
101.0, -108075.44536297863, -108729.14448131854, -108264.51876932607, -111814.24400976229, -187500.02235174447, -123765.90058397062, -153842.4079230318, -115918.58308536805, -0.004, -0.648, 0.774, 192.0, 0.0, 0.0, 0.0, 0.0, 0.0, 0.0, 0.0, 0.0, 0.0, 1.7695189283549545E9, 0.0, 2026-01-27 18:32:08.354
102.0, -108019.18602218461, -108664.81616077617, -108201.95623659567, -111752.53084332119, -187500.02235174447, -123764.98416244796, -153840.48567300866, -115917.9125330344, -0.008, -0.646, 0.778, 192.0, 255.0, 192.0, 235.0, 208.0, 24.0, 80.0, 0.0, 0.0, 0.0, 1.7695189283549747E9, 0.0, 2026-01-27 18:32:08.354
103.0, -108156.33632616239, -108801.85470603165, -108340.26883128511, -111891.80456302222, -187500.02235174447, -123768.13575841616, -153842.34086779846, -115921.19823946933, -0.008, -0.646, 0.778, 192.0, 0.0, 0.0, 0.0, 0.0, 0.0, 0.0, 0.0, 0.0, 0.0, 1.7695189283550463E9, 0.0, 2026-01-27 18:32:08.355
104.0, -108303.3661011894, -108957.57930965177, -108495.27817908266, -112045.74102708591, -187500.02235174447, -123767.71107527151, -153840.61978347538, -115920.88531504695, -0.008, -0.646, 0.778, 192.0, 0.0, 0.0, 0.0, 0.0, 0.0, 0.0, 0.0, 0.0, 0.0, 1.769518928355136E9, 0.0, 2026-01-27 18:32:08.355
105.0, -108253.76758024307, -108913.09933818571, -108449.21123376027, -111998.1318113961, -187500.02235174447, -123764.87240372568, -153836.64117296235, -115918.29251269014, -0.008, -0.646, 0.778, 192.0, 0.0, 0.0, 0.0, 0.0, 0.0, 0.0, 0.0, 0.0, 0.0, 1.769518928833816E9, 0.0, 2026-01-27 18:32:08.833
106.0, -108076.36178450129, -108730.28442028575, -108266.03868794903, -111815.65216966298, -187500.02235174447, -123762.99485719143, -153833.73544618316, -115916.72789057826, -0.008, -0.646, 0.778, 192.0, 0.0, 0.0, 0.0, 0.0, 0.0, 0.0, 0.0, 0.0, 0.0, 1.769518928833868E9, 0.0, 2026-01-27 18:32:08.833
107.0, -108022.002341986, -108667.87834976654, -108204.3925767413, -111755.61538405603, -187500.02235174447, -123761.92197345757, -153831.83554790445, -115916.19144871134, -0.008, -0.646, 0.778, 192.0, 0.0, 0.0, 0.0, 0.0, 0.0, 0.0, 0.0, 0.0, 0.0, 1.7695189288338935E9, 0.0, 2026-01-27 18:32:08.833
108.0, -108155.64342208426, -108800.51360136434, -108338.39128475086, -111889.27881589877, -187500.02235174447, -123762.99485719143, -153831.79084441555, -115917.44314640084, -0.008, -0.646, 0.778, 192.0, 0.0, 0.0, 0.0, 0.0, 0.0, 0.0, 0.0, 0.0, 0.0, 1.7695189288339164E9, 0.0, 2026-01-27 18:32:08.833
109.0, -108303.94724654523, -108957.57930965177, -108495.27817908266, -112045.2939921968, -187500.02235174447, -123763.15131940262, -153830.62855370386, -115917.68901558984, -0.008, -0.646, 0.778, 192.0, 0.0, 0.0, 0.0, 0.0, 0.0, 0.0, 0.0, 0.0, 0.0, 1.769518928833943E9, 0.0, 2026-01-27 18:32:08.833
110.0, -108252.82880697594, -108911.3111986293, -108447.24428024821, -111996.85776196215, -187500.02235174447, -123760.9161449571, -153827.6110682024, -115915.8561725445, -0.008, -0.646, 0.778, 192.0, 0.0, 0.0, 0.0, 0.0, 0.0, 0.0, 0.0, 0.0, 0.0, 1.7695189288339653E9, 0.0, 2026-01-27 18:32:08.833
111.0, -108076.36178450129, -108728.85390864062, -108264.31760362597, -111814.0428440622, -187500.02235174447, -123758.43510132255, -153824.34771351193, -115913.88921903244, -0.008, -0.646, 0.778, 192.0, 0.0, 0.0, 0.0, 0.0, 0.0, 0.0, 0.0, 0.0, 0.0, 1.7695189288340228E9, 0.0, 2026-01-27 18:32:08.834
112.0, -108025.69037982111, -108669.62178583405, -108206.85126863138, -111758.0740759461, -187500.02235174447, -123762.14549090213, -153826.96286761318, -115917.86782954549, -0.014, -0.64, 0.78, 192.0, 255.0, 144.0, 236.0, 0.0, 24.0, 96.0, 0.0, 0.0, 0.0, 1.7695189288340454E9, 0.0, 2026-01-27 18:32:08.834
113.0, -108160.33728841989, -108804.40280489955, -108342.68281968628, -111893.88327525655, -187500.02235174447, -123762.1678426466, -153825.73352166815, -115917.9572365233, -0.014, -0.64, 0.78, 192.0, 0.0, 0.0, 0.0, 0.0, 0.0, 0.0, 0.0, 0.0, 0.0, 1.7695189288340683E9, 0.0, 2026-01-27 18:32:08.834
114.0, -108304.0143017786, -108956.64053638466, -108494.74173721574, -112045.18223347452, -187500.02235174447, -123759.9103164566, -153822.29135302204, -115915.83382080005, -0.014, -0.64, 0.78, 192.0, 0.0, 0.0, 0.0, 0.0, 0.0, 0.0, 0.0, 0.0, 0.0, 1.769518928834084E9, 0.0, 2026-01-27 18:32:08.834
115.0, -108254.549891299, -108912.3617306187, -108448.42892270433, -111997.70712825145, -187500.02235174447, -123758.6139152782, -153820.10088206542, -115915.0068062552, -0.014, -0.64, 0.78, 192.0, 0.0, 0.0, 0.0, 0.0, 0.0, 0.0, 0.0, 0.0, 0.0, 1.7695189288340986E9, 0.0, 2026-01-27 18:32:08.834
116.0, -108078.93223511365, -108731.37965576407, -108266.73159202715, -111816.50153595228, -187500.02235174447, -123758.79272923384, -153819.38562624285, -115915.6550068444, -0.014, -0.64, 0.78, 192.0, 0.0, 0.0, 0.0, 0.0, 0.0, 0.0, 0.0, 0.0, 0.0, 1.7695189288341136E9, 0.0, 2026-01-27 18:32:08.834
117.0, -108025.77978679894, -108669.8005997897, -108206.67245467573, -111757.1800061679, -187500.02235174447, -123757.27281061087, -153816.81517563047, -115914.38095741045, -0.014, -0.64, 0.78, 192.0, 0.0, 0.0, 0.0, 0.0, 0.0, 0.0, 0.0, 0.0, 0.0, 1.769518928834128E9, 0.0, 2026-01-27 18:32:08.834
118.0, -108157.72213431861, -108801.51942986483, -108340.17942430728, -111890.86578975509, -187500.02235174447, -123756.17757513256, -153814.46824246267, -115913.39748065443, -0.014, -0.64, 0.78, 192.0, 0.0, 0.0, 0.0, 0.0, 0.0, 0.0, 0.0, 0.0, 0.0, 1.7695189288341424E9, 0.0, 2026-01-27 18:32:08.834
119.0, -108304.30487445652, -108957.06521952931, -108495.54640001613, -112046.14335848611, -187500.02235174447, -123757.25045886642, -153814.24472501813, -115914.51506787719, -0.014, -0.64, 0.78, 192.0, 0.0, 0.0, 0.0, 0.0, 0.0, 0.0, 0.0, 0.0, 0.0, 1.769518928834157E9, 0.0, 2026-01-27 18:32:08.834
120.0, -108250.70539125269, -108908.47252708346, -108445.05380929158, -111994.89080845009, -187500.02235174447, -123756.78107223286, -153812.59069592843, -115914.33625392154, -0.014, -0.64, 0.78, 192.0, 0.0, 0.0, 0.0, 0.0, 0.0, 0.0, 0.0, 0.0, 0.0, 1.7695189288341715E9, 0.0, 2026-01-27 18:32:08.834
121.0, -108075.22184553408, -108727.46810048439, -108263.17766465875, -111812.16529752796, -187500.02235174447, -123758.23393562245, -153813.06008256198, -115916.07968998906, -0.014, -0.64, 0.78, 192.0, 0.0, 0.0, 0.0, 0.0, 0.0, 0.0, 0.0, 0.0, 0.0, 1.7695189288341866E9, 0.0, 2026-01-27 18:32:08.834
122.0, -108022.98581874202, -108667.4983701108, -108204.70550116367, -111754.94483172237, -187500.02235174447, -123760.53616530135, -153814.24472501813, -115918.51603013469, -0.012, -0.642, 0.78, 192.0, 255.0, 160.0, 235.0, 240.0, 24.0, 96.0, 0.0, 0.0, 0.0, 1.7695189288342009E9, 0.0, 2026-01-27 18:32:08.834
123.0, -108157.20804419614, -108801.675892076, -108340.71586617421, -111890.77638277727, -187500.02235174447, -123761.8102147353, -153814.40118722932, -115919.94654177983, -0.012, -0.642, 0.78, 192.0, 0.0, 0.0, 0.0, 0.0, 0.0, 0.0, 0.0, 0.0, 0.0, 1.769518928834216E9, 0.0, 2026-01-27 18:32:08.834
124.0, -108295.34182492994, -108948.75037059194, -108487.23155107874, -112036.46505313696, -187500.02235174447, -123760.80438623481, -153812.16601278377, -115919.2089342128, -0.012, -0.642, 0.78, 192.0, 0.0, 0.0, 0.0, 0.0, 0.0, 0.0, 0.0, 0.0, 0.0, 1.76951892883423E9, 0.0, 2026-01-27 18:32:08.834
125.0, -108240.04360914751, -108898.3024833563, -108434.5484893976, -111983.55847401125, -187500.02235174447, -123760.29029611235, -153810.37787322735, -115918.8066028126, -0.012, -0.642, 0.78, 192.0, 0.0, 0.0, 0.0, 0.0, 0.0, 0.0, 0.0, 0.0, 0.0, 1.7695189288342445E9, 0.0, 2026-01-27 18:32:08.834
126.0, -108061.87785409426, -108714.48173695586, -108249.76661798557, -111798.57543689913, -187500.02235174447, -123760.22324087897, -153809.48380344914, -115919.18658246835, -0.012, -0.642, 0.78, 192.0, 0.0, 0.0, 0.0, 0.0, 0.0, 0.0, 0.0, 0.0, 0.0, 1.7695189288342724E9, 0.0, 2026-01-27 18:32:08.834
127.0, -108008.56894356835, -108653.64028854851, -108190.3333294789, -111740.14797689296, -187500.02235174447, -123757.85395596671, -153806.08633829193, -115917.01846325619, -0.012, -0.642, 0.78, 192.0, 0.0, 0.0, 0.0, 0.0, 0.0, 0.0, 0.0, 0.0, 0.0, 1.769518928834287E9, 0.0, 2026-01-27 18:32:08.834
128.0, -108139.10313118734, -108784.5768075677, -108322.1192147874, -111872.403248835, -187500.02235174447, -123756.02111292139, -153803.04650104602, -115915.25267544421, -0.012, -0.642, 0.78, 192.0, 0.0, 0.0, 0.0, 0.0, 0.0, 0.0, 0.0, 0.0, 0.0, 1.7695189288343012E9, 0.0, 2026-01-27 18:32:08.834
129.0, -108278.73447879964, -108932.99239075094, -108469.93130087035, -112019.20950641746, -187500.02235174447, -123753.5624210313, -153799.42551844424, -115912.95044576532, -0.012, -0.642, 0.78, 192.0, 0.0, 0.0, 0.0, 0.0, 0.0, 0.0, 0.0, 0.0, 0.0, 1.7695189288343153E9, 0.0, 2026-01-27 18:32:08.834
130.0, -108224.48679500661, -108883.3491663157, -108418.72345432323, -111967.44286625896, -187500.02235174447, -123752.80246171981, -153797.6597306323, -115912.48105913175, -0.012, -0.642, 0.78, 192.0, 0.0, 0.0, 0.0, 0.0, 0.0, 0.0, 0.0, 0.0, 0.0, 1.7695189288343296E9, 0.0, 2026-01-27 18:32:08.834
131.0, -108049.67380162166, -108704.08817578414, -108238.36722831336, -111787.57837862712, -187500.02235174447, -123752.19896461953, -153796.02805328704, -115912.16813470938, -0.012, -0.642, 0.78, 192.0, 0.0, 0.0, 0.0, 0.0, 0.0, 0.0, 0.0, 0.0, 0.0, 1.769518928834344E9, 0.0, 2026-01-27 18:32:08.834
132.0, -107996.00726318447, -108643.4925965658, -108178.68807061769, -111728.01097965371, -187500.02235174447, -123750.6566942521, -153793.43525093023, -115910.87173353098, -0.012, -0.65, 0.778, 192.0, 255.0, 160.0, 235.0, 176.0, 24.0, 80.0, 0.0, 0.0, 0.0, 1.7695189288343587E9, 0.0, 2026-01-27 18:32:08.834
133.0, -108126.4743955701, -108773.93737720698, -108310.60806639292, -111861.11561788508, -187500.02235174447, -123750.56728727429, -153792.0047392851, -115910.93878876434, -0.012, -0.65, 0.778, 192.0, 0.0, 0.0, 0.0, 0.0, 0.0, 0.0, 0.0, 0.0, 0.0, 1.7695189288343742E9, 0.0, 2026-01-27 18:32:08.834
134.0, -108264.07173443696, -108919.64839931112, -108455.49207395222, -112006.22314288894, -187500.02235174447, -123751.03667390785, -153791.33418695143, -115911.51993412018, -0.012, -0.65, 0.778, 192.0, 0.0, 0.0, 0.0, 0.0, 0.0, 0.0, 0.0, 0.0, 0.0, 1.7695189288343885E9, 0.0, 2026-01-27 18:32:08.834
135.0, -108210.65106518878, -108870.943948143, -108404.86537276095, -111953.09304631867, -187500.02235174447, -123751.59546751923, -153790.93185555123, -115912.41400389839, -0.012, -0.65, 0.778, 192.0, 0.0, 0.0, 0.0, 0.0, 0.0, 0.0, 0.0, 0.0, 0.0, 1.7695189288344176E9, 0.0, 2026-01-27 18:32:08.834
136.0, -108034.38520841423, -108689.40307967701, -108222.76571068355, -111770.94868075236, -187500.02235174447, -123750.63434250765, -153788.96490203918, -115911.76580330919, -0.012, -0.65, 0.778, 192.0, 0.0, 0.0, 0.0, 0.0, 0.0, 0.0, 0.0, 0.0, 0.0, 1.7695189288344326E9, 0.0, 2026-01-27 18:32:08.834
137.0, -107983.37852756721, -108630.6850469929, -108165.20996871115, -111714.84580216954, -187500.02235174447, -123749.5614587738, -153786.796782827, -115911.02819574217, -0.012, -0.65, 0.778, 192.0, 0.0, 0.0, 0.0, 0.0, 0.0, 0.0, 0.0, 0.0, 0.0, 1.7695189288344476E9, 0.0, 2026-01-27 18:32:08.834
138.0, -108113.28686634147, -108760.81690321171, -108296.48176389716, -111847.01166713377, -187500.02235174447, -123750.27671459636, -153786.3944514268, -115911.69874807583, -0.012, -0.65, 0.778, 192.0, 0.0, 0.0, 0.0, 0.0, 0.0, 0.0, 0.0, 0.0, 0.0, 1.7695189288344622E9, 0.0, 2026-01-27 18:32:08.834
139.0, -108248.38080982934, -108904.78448924834, -108440.40464644488, -111989.66050024754, -187500.02235174447, -123748.22035410648, -153783.01933801407, -115909.68709107484, -0.012, -0.65, 0.778, 192.0, 0.0, 0.0, 0.0, 0.0, 0.0, 0.0, 0.0, 0.0, 0.0, 1.7695189288344767E9, 0.0, 2026-01-27 18:32:08.834
140.0, -108197.95527433816, -108859.41044800407, -108393.60009355546, -111942.23009851339, -187500.02235174447, -123748.39916806213, -153782.05821300248, -115910.17882945287, -0.012, -0.65, 0.778, 192.0, 0.0, 0.0, 0.0, 0.0, 0.0, 0.0, 0.0, 0.0, 0.0, 1.7695189288344915E9, 0.0, 2026-01-27 18:32:08.834
141.0, -108029.04314148941, -108684.35158543011, -108218.07184434794, -111767.2829946617, -187500.02235174447, -123748.44387155103, -153781.0970879909, -115910.62586434197, -0.012, -0.65, 0.778, 192.0, 0.0, 0.0, 0.0, 0.0, 0.0, 0.0, 0.0, 0.0, 0.0, 1.7695189288345206E9, 0.0, 2026-01-27 18:32:08.834
